Serial Number,Fp1,Fp2,AF3,AF4,F7,F3,Fz,F4,F8,FT7,FC3,FCz,FC4,FT8,T7,C3,Cz,C4,T8,TP7,CP3,CPz,CP4,TP8,P7,P3,Pz,P4,P8,O1,Oz,O2
1876192,10966.62,9056.79,11011.36,3942.0,26130.66,4847.33,12923.29,2551.45,12004.14,11323.8,12917.56,10410.68,-1199.89,19992.96,-391.24,4854.35,4087.82,9302.71,9035.96,9253.22,7567.59,7572.86,2239.24,22847.77,10054.75,5542.61,6219.55,4096.99,7794.72,7054.03,12228.42,7272.63
1876193,10967.69,9059.52,11011.99,3946.42,26137.86,4849.3,12922.84,2554.49,12033.64,11331.8,12920.25,10411.8,-1200.2,19983.44,-369.21,4858.02,4086.84,9298.28,9031.98,9248.08,7565.08,7573.58,2231.29,22884.12,10032.27,5532.86,6222.9,4087.69,7797.5,7119.16,12262.03,7291.68
1876194,11006.85,9113.07,11052.04,3982.5,26184.44,4888.73,12962.54,2602.01,12087.96,11381.91,12962.22,10445.82,-1162.29,20010.89,-308.1,4903.48,4121.62,9337.62,9056.21,9283.57,7609.87,7608.35,2272.68,22968.47,10073.66,5582.44,6261.66,4135.79,7784.49,7158.86,12317.55,7361.37
1876195,10995.36,9112.58,11037.92,3963.23,26152.17,4868.7,12949.57,2591.51,12050.63,11353.66,12940.45,10427.89,-1177.8,19988.09,-394.11,4878.0,4104.94,9319.56,8976.51,9258.27,7594.05,7591.23,2251.76,22911.66,10081.44,5578.01,6244.14,4112.14,7785.96,7151.84,12300.97,7361.95
1876196,10968.36,9090.45,11005.37,3926.53,26104.78,4831.02,12915.46,2550.24,11998.01,11308.73,12900.94,10392.49,-1221.93,19986.89,-447.17,4833.83,4068.82,9273.65,8874.67,9230.64,7552.83,7553.64,2201.96,22698.33,10050.06,5537.73,6207.21,4065.34,7797.58,7092.79,12269.01,7326.5
1876197,10970.15,9091.39,11003.58,3924.12,26105.81,4827.89,12914.08,2546.85,12003.47,11315.39,12901.83,10392.13,-1221.93,19987.82,-411.05,4837.86,4069.0,9274.9,8901.94,9232.61,7552.65,7552.39,2206.92,22743.53,10035.13,5528.7,6202.97,4069.49,7810.73,7070.12,12266.64,7325.43
1876198,10977.52,9095.37,11010.38,3929.93,26117.07,4834.82,12921.63,2556.15,12022.96,11324.91,12911.4,10401.56,-1212.18,19985.77,-406.18,4852.38,4081.03,9286.66,8930.15,9241.91,7571.21,7567.9,2222.7,22764.72,10056.81,5556.38,6223.8,4087.06,7813.63,7120.64,12294.49,7352.07
1876199,10957.09,9075.03,10995.4,3918.22,26111.31,4821.85,12907.77,2540.9,12011.11,11304.8,12897.94,10393.52,-1222.6,19980.0,-431.97,4839.38,4073.43,9281.29,8933.41,9237.93,7559.76,7560.48,2217.29,22763.46,10057.66,5541.09,6211.55,4077.09,7814.48,7110.72,12260.56,7310.27
1876200,10960.18,9078.43,11002.56,3930.73,26130.66,4832.04,12916.22,2546.67,12018.94,11312.62,12905.85,10406.26,-1214.46,20000.48,-421.87,4845.99,4085.63,9291.98,8986.25,9233.19,7561.19,7571.97,2231.11,22810.63,10018.14,5535.01,6222.32,4090.95,7828.56,7111.25,12267.13,7306.92
1876201,10958.97,9068.06,11002.91,3928.81,26130.13,4834.86,12916.76,2541.75,12010.75,11314.45,12909.97,10409.52,-1215.35,19999.58,-416.95,4849.48,4089.21,9294.88,8995.5,9230.24,7566.2,7579.43,2241.43,22835.62,10028.83,5549.0,6241.46,4112.27,7841.57,7172.09,12303.12,7322.7
1876202,10958.7,9062.34,11001.48,3924.3,26115.55,4832.67,12913.01,2539.56,12001.05,11313.92,12906.97,10404.11,-1217.01,19988.27,-417.4,4844.16,4082.28,9292.51,8958.58,9220.14,7558.96,7571.74,2241.52,22819.25,10024.04,5540.15,6229.12,4111.96,7841.26,7161.01,12297.75,7343.0
1876203,10970.59,9075.43,11013.2,3939.09,26122.3,4842.77,12924.63,2559.54,11998.77,11325.58,12914.17,10410.06,-1195.01,20006.87,-422.22,4850.06,4087.87,9311.65,8937.17,9220.68,7562.53,7573.17,2256.99,22851.98,10027.75,5539.61,6225.54,4121.62,7831.29,7120.06,12275.18,7317.56
1876204,10984.0,9092.11,11022.05,3948.75,26122.3,4846.17,12932.54,2576.53,12005.52,11322.9,12913.77,10411.93,-1179.01,20021.04,-420.75,4847.87,4086.84,9321.93,8869.8,9231.05,7562.04,7568.7,2252.43,22868.79,10027.93,5536.66,6217.5,4105.3,7818.1,7096.28,12266.32,7304.24
1876205,10986.55,9094.16,11023.25,3943.21,26127.98,4847.24,12932.05,2574.12,12027.43,11323.57,12913.32,10406.21,-1186.52,20020.86,-404.57,4847.69,4080.89,9311.47,8948.88,9245.22,7563.61,7563.52,2230.66,22839.55,10052.7,5542.29,6215.26,4081.47,7775.32,7063.55,12277.05,7331.28
1876206,10996.57,9104.04,11033.54,3952.68,26144.97,4860.3,12942.11,2579.26,12048.04,11330.77,12928.03,10417.66,-1188.44,20024.44,-370.77,4866.6,4094.39,9311.33,9093.54,9257.56,7583.32,7579.61,2246.08,22926.23,10077.42,5560.26,6229.61,4102.13,7788.96,7102.94,12288.45,7341.25
1876207,10991.56,9095.46,11030.54,3947.59,26148.81,4861.19,12938.13,2569.6,12051.21,11316.64,12931.87,10418.73,-1200.96,19980.98,-367.11,4873.04,4096.4,9298.73,9074.23,9233.95,7590.79,7582.87,2241.57,22875.27,10072.68,5565.27,6230.82,4105.03,7790.7,7109.24,12274.55,7322.97
1876208,10957.67,9053.62,11000.77,3917.19,26125.12,4835.26,12908.76,2532.94,12014.02,11296.08,12908.53,10392.4,-1235.92,19934.98,-373.77,4852.97,4071.64,9268.24,8972.39,9237.39,7572.37,7561.91,2215.82,22823.95,10082.25,5551.99,6217.76,4085.81,7801.79,7083.09,12256.85,7312.51
1876209,10962.86,9053.35,11006.94,3926.17,26139.61,4844.65,12916.89,2534.87,12016.83,11330.73,12923.6,10407.24,-1223.09,19976.69,-353.25,4874.02,4087.96,9290.37,8995.24,9342.05,7600.76,7580.82,2241.21,22888.54,10183.32,5586.64,6233.95,4108.25,7801.61,7088.59,12261.0,7319.39
1876210,10978.15,9070.78,11020.35,3946.11,26152.21,4855.34,12930.08,2551.05,12024.52,11341.01,12930.98,10421.86,-1201.99,20037.04,-382.57,4873.22,4100.47,9309.77,9039.81,9286.75,7593.02,7589.31,2254.89,22907.9,10060.74,5570.46,6235.78,4113.48,7805.5,7068.2,12244.55,7278.0
1876211,10968.45,9072.93,11007.52,3933.46,26125.3,4836.96,12917.21,2549.26,12015.76,11312.93,12909.21,10398.34,-1214.33,20013.35,-417.93,4844.2,4074.54,9278.34,8992.42,9158.0,7557.57,7559.94,2219.48,22825.11,9995.16,5532.95,6216.29,4081.38,7784.22,7119.97,12271.91,7295.79
1876212,10977.43,9086.57,11013.42,3933.37,26120.2,4840.81,12921.36,2558.25,12025.19,11324.42,12914.7,10395.17,-1207.26,19966.41,-394.42,4851.45,4071.24,9280.22,8934.84,9179.33,7560.97,7554.17,2217.02,22786.53,10012.2,5527.23,6213.74,4078.39,7790.12,7131.5,12298.33,7339.78
1876213,10993.53,9092.69,11025.4,3944.37,26134.51,4852.38,12933.08,2568.35,12033.29,11343.64,12927.94,10406.88,-1197.52,19986.53,-387.36,4865.48,4083.57,9300.02,8954.11,9198.15,7578.09,7567.23,2235.67,22817.87,10022.12,5547.21,6221.79,4098.24,7795.93,7114.47,12303.43,7363.16
1876214,11002.42,9110.03,11037.16,3957.51,26145.82,4862.76,12946.44,2584.58,12053.13,11354.33,12936.56,10419.98,-1182.23,20007.0,-379.13,4872.23,4097.07,9317.41,9001.0,9251.03,7588.37,7580.28,2252.74,22859.26,10064.59,5566.43,6234.53,4114.78,7782.88,7102.58,12300.75,7353.23
1876215,10978.77,9092.29,11018.69,3935.16,26131.16,4844.29,12925.08,2559.19,12029.53,11335.11,12918.24,10401.88,-1206.14,19956.53,-397.24,4851.76,4078.25,9289.65,8999.17,9237.66,7562.62,7560.66,2224.18,22834.45,10005.49,5532.77,6212.76,4083.4,7794.46,7097.48,12279.29,7310.5
1876216,10950.66,9067.79,10996.92,3911.6,26111.93,4824.53,12903.17,2530.58,12004.59,11311.73,12901.78,10385.34,-1232.88,19928.06,-413.95,4837.72,4063.37,9263.99,8953.84,9244.55,7550.69,7548.77,2203.03,22784.38,10011.48,5526.29,6203.41,4069.05,7808.45,7097.75,12267.04,7315.68
1876217,10951.28,9064.88,10996.16,3915.4,26124.85,4830.3,12907.91,2528.56,12007.4,11307.75,12911.08,10394.72,-1233.77,19949.38,-410.38,4849.12,4074.68,9270.52,8943.65,9265.07,7566.15,7563.43,2214.7,22766.32,10058.02,5551.15,6223.66,4082.05,7822.84,7133.74,12280.99,7323.24
1876218,10955.44,9054.33,10997.55,3923.18,26135.31,4837.9,12911.4,2535.72,12009.86,11308.37,12918.91,10402.68,-1220.41,19979.64,-386.42,4858.91,4082.01,9287.42,8956.84,9257.96,7572.06,7568.7,2227.49,22821.98,10050.01,5549.18,6220.27,4087.87,7810.33,7110.85,12262.21,7305.0
1876219,10975.69,9062.92,11015.88,3948.79,26148.55,4852.47,12929.86,2566.29,12027.74,11323.21,12935.22,10419.98,-1187.32,20024.3,-337.15,4878.4,4099.18,9319.87,8971.59,9266.18,7590.12,7584.84,2258.78,22871.24,10026.59,5564.65,6231.26,4120.45,7826.2,7083.8,12251.26,7287.88
1876220,10995.45,9085.49,11031.97,3971.99,26144.34,4860.34,12947.65,2592.18,12047.5,11331.26,12941.53,10429.23,-1164.57,20051.35,-376.76,4881.89,4109.1,9335.83,9023.53,9265.96,7598.88,7595.08,2275.77,22896.14,10072.86,5580.2,6251.47,4141.42,7812.07,7165.21,12290.2,7315.64
1876221,10973.77,9075.52,11007.34,3945.26,26115.87,4830.7,12920.52,2567.68,12014.69,11315.84,12906.75,10395.17,-1196.53,20008.52,-408.41,4839.42,4071.68,9296.0,8980.84,9224.56,7551.98,7556.05,2232.94,22852.92,10035.13,5530.31,6212.58,4097.25,7797.72,7152.87,12295.29,7340.85
1876222,10965.27,9078.74,10999.43,3928.9,26108.58,4826.19,12911.84,2553.64,12004.14,11320.0,12902.59,10386.36,-1208.42,19989.88,-396.56,4834.59,4062.92,9286.26,8830.1,9225.73,7542.73,7545.68,2217.11,22770.53,10016.67,5518.06,6198.68,4080.4,7798.12,7079.69,12268.92,7339.78
1876223,10959.86,9077.89,10994.15,3919.56,26090.07,4826.01,12908.98,2547.7,12018.26,11310.43,12904.73,10387.71,-1214.33,19970.21,-432.64,4840.49,4065.87,9284.47,8857.46,9268.73,7558.38,7550.29,2212.33,22754.03,10104.02,5538.36,6201.22,4070.03,7788.47,7068.43,12260.07,7328.82
1876224,10956.47,9078.34,10995.31,3920.41,26102.95,4831.6,12909.65,2545.28,12007.49,11319.86,12910.86,10392.49,-1219.56,19954.65,-428.97,4846.26,4070.21,9278.97,8988.62,9276.38,7561.46,7555.43,2213.4,22815.99,10080.55,5538.23,6204.26,4070.61,7791.33,7068.56,12245.54,7298.87
1876225,10965.94,9093.63,11009.89,3933.46,26130.4,4845.81,12927.31,2557.67,11984.83,11330.37,12922.48,10414.21,-1199.13,19995.11,-420.26,4857.21,4093.01,9303.91,9021.97,9253.0,7570.49,7580.1,2247.2,22879.74,10033.65,5545.07,6231.93,4108.79,7828.07,7131.99,12267.67,7308.17
1876226,10945.69,9052.68,10992.01,3921.48,26122.8,4828.07,12909.52,2527.04,11980.67,11315.62,12903.35,10400.18,-1221.25,19992.47,-442.16,4836.6,4080.45,9288.58,9012.89,9213.75,7552.92,7569.91,2240.36,22870.98,10003.57,5528.48,6223.84,4110.35,7822.89,7133.47,12256.4,7314.12
1876227,10966.75,9054.24,11013.29,3948.53,26146.18,4846.22,12929.23,2552.17,12038.74,11341.63,12919.84,10414.62,-1200.91,20012.23,-383.47,4853.46,4092.07,9305.39,9056.52,9233.86,7566.15,7579.03,2250.69,22895.52,10009.87,5543.41,6235.11,4121.13,7794.86,7131.55,12278.39,7349.57
1876228,10986.78,9084.91,11028.62,3967.08,26150.51,4853.37,12942.33,2581.0,12059.7,11342.21,12924.58,10423.2,-1177.31,20031.01,-384.81,4857.03,4101.05,9324.07,9065.82,9236.9,7569.82,7583.41,2266.33,22921.49,10002.9,5543.5,6232.61,4129.17,7795.93,7118.27,12279.65,7335.75
1876229,10969.7,9077.45,11007.16,3936.86,26112.51,4827.71,12915.73,2554.36,12021.98,11318.74,12898.43,10392.85,-1212.09,19976.56,-425.53,4831.2,4070.16,9284.07,8936.27,9219.33,7546.35,7550.87,2224.04,22800.79,9995.61,5519.85,6202.74,4088.49,7800.49,7081.48,12254.52,7287.97
1876230,10963.89,9073.47,11000.99,3922.46,26108.04,4824.76,12908.58,2539.69,12011.25,11321.2,12898.66,10385.47,-1231.63,19952.87,-426.11,4834.41,4062.7,9266.05,8906.05,9229.12,7553.55,7544.79,2199.77,22736.69,10045.14,5532.1,6198.54,4055.9,7799.55,7076.7,12258.32,7299.28
1876231,10974.89,9082.45,11012.7,3930.11,26122.66,4838.04,12922.04,2551.23,12016.66,11336.76,12914.3,10397.05,-1219.69,19953.49,-368.09,4853.19,4074.63,9275.97,8959.07,9261.13,7574.51,7559.54,2213.94,22786.31,10080.95,5556.73,6219.95,4077.58,7792.89,7108.7,12298.51,7349.21
1876232,10975.06,9073.87,11012.12,3925.37,26134.91,4837.19,12918.55,2538.89,12003.47,11333.14,12912.51,10397.41,-1229.21,19965.29,-352.31,4852.34,4073.69,9269.31,8981.33,9254.92,7569.69,7560.34,2211.66,22827.66,10054.8,5547.03,6212.13,4075.04,7812.16,7103.65,12274.37,7334.9
1876233,10968.54,9067.03,11008.37,3922.78,26139.29,4834.91,12915.64,2529.9,11999.94,11325.41,12908.76,10394.86,-1235.02,19983.58,-380.83,4845.41,4069.98,9266.45,8986.79,9234.04,7557.75,7556.86,2206.88,22817.06,10011.17,5534.92,6209.58,4070.83,7795.08,7094.26,12255.91,7314.03
1876234,10956.78,9056.39,11000.37,3916.61,26139.52,4832.09,12908.58,2522.3,12005.7,11313.96,12908.18,10395.08,-1236.23,19986.53,-413.33,4844.87,4071.37,9271.82,8990.01,9253.58,7559.27,7558.87,2216.26,22830.65,9996.86,5532.55,6207.26,4076.82,7795.98,7093.06,12239.59,7289.84
1876235,10953.29,9054.11,10998.53,3915.89,26135.85,4833.25,12906.93,2523.91,12006.78,11303.9,12909.25,10393.83,-1233.95,19976.74,-418.87,4845.72,4069.81,9272.58,8966.58,9257.56,7561.95,7559.18,2218.1,22847.64,10038.44,5539.03,6213.25,4083.93,7815.42,7113.26,12238.16,7274.46
1876236,10961.12,9066.0,11003.36,3922.87,26129.41,4832.13,12910.05,2536.57,12012.32,11312.26,12906.79,10389.36,-1227.29,19976.6,-411.67,4842.68,4065.29,9274.28,8962.47,9254.43,7558.6,7554.53,2214.74,22837.76,10025.83,5538.27,6212.13,4080.45,7805.59,7113.0,12270.26,7312.73
1876237,10969.97,9072.75,11005.82,3924.52,26124.85,4831.73,12909.29,2545.46,12012.1,11322.99,12907.64,10383.86,-1223.4,19966.72,-404.07,4844.43,4061.62,9276.38,8972.03,9244.59,7559.18,7548.77,2221.36,22825.65,10035.08,5537.6,6206.36,4089.3,7805.32,7056.13,12267.08,7297.62
1876238,10991.74,9094.34,11025.67,3944.77,26142.96,4852.52,12928.61,2570.94,12028.5,11346.28,12930.98,10402.32,-1199.39,19987.87,-383.06,4869.73,4079.77,9298.91,8980.22,9244.15,7582.78,7565.35,2240.81,22867.35,10091.1,5556.33,6221.34,4102.98,7814.66,7064.63,12270.84,7299.23
1876239,10992.72,9098.99,11030.94,3949.96,26143.4,4857.93,12936.92,2577.74,12019.92,11339.58,12936.3,10409.48,-1187.82,19998.91,-386.51,4871.83,4087.46,9307.36,8975.7,9233.82,7583.63,7575.05,2246.57,22828.69,10051.04,5565.18,6241.01,4109.19,7804.65,7166.33,12320.77,7362.89
1876240,10974.48,9085.49,11015.57,3937.75,26138.98,4845.59,12923.02,2560.57,12012.41,11314.72,12923.6,10401.74,-1197.25,19989.21,-384.9,4856.1,4079.24,9299.13,8970.34,9242.13,7568.03,7566.91,2237.23,22830.65,9999.86,5547.93,6224.78,4095.47,7800.89,7143.66,12291.63,7332.62
1876241,10969.97,9083.79,11013.15,3937.39,26134.06,4844.52,12921.41,2558.43,12029.31,11310.56,12922.21,10403.98,-1195.91,19995.02,-388.65,4854.8,4082.01,9302.53,8953.21,9256.35,7565.13,7568.79,2239.02,22861.27,10022.12,5539.16,6223.4,4098.73,7825.39,7109.24,12274.42,7318.54
1876242,10958.39,9063.86,11002.74,3926.98,26120.2,4837.63,12911.71,2543.05,12026.18,11324.65,12917.7,10400.18,-1211.87,19973.61,-389.05,4854.53,4078.93,9296.0,8908.02,9249.82,7566.51,7567.85,2235.71,22809.11,10022.52,5541.49,6220.67,4099.98,7811.8,7095.07,12244.2,7303.16
1876243,10964.29,9055.45,11008.99,3933.19,26135.05,4849.12,12917.34,2541.8,12025.82,11359.25,12932.54,10410.28,-1214.68,19982.5,-354.59,4872.81,4088.89,9295.15,8959.79,9257.78,7586.45,7580.33,2237.81,22810.58,10034.77,5567.37,6236.05,4103.91,7814.71,7095.11,12251.97,7304.68
1876244,10967.96,9062.34,11011.41,3934.4,26137.06,4848.14,12919.53,2541.8,12016.21,11349.72,12928.61,10405.18,-1217.37,19986.39,-387.27,4865.71,4083.48,9285.81,8988.75,9249.96,7580.5,7573.53,2228.29,22809.37,10050.6,5560.85,6237.16,4095.24,7821.19,7139.06,12294.93,7349.75
1876245,10976.67,9079.99,11013.6,3936.86,26136.34,4842.1,12920.52,2550.83,12020.59,11330.68,12917.65,10400.67,-1211.64,19992.03,-416.5,4850.24,4078.79,9286.21,8974.72,9237.44,7567.63,7565.08,2226.23,22813.62,10021.81,5546.09,6222.99,4087.28,7813.41,7138.74,12280.27,7321.27
1876246,10983.33,9081.56,11016.91,3938.65,26136.07,4843.62,12925.75,2562.99,12012.01,11339.76,12920.34,10401.21,-1199.84,19999.4,-381.45,4855.51,4079.37,9296.85,8955.41,9253.53,7574.16,7566.6,2235.93,22832.49,10036.2,5558.74,6228.31,4099.89,7808.18,7159.4,12294.76,7333.92
1876247,10992.77,9092.51,11025.71,3952.01,26146.94,4851.18,12936.83,2577.33,12017.01,11350.13,12928.92,10414.48,-1178.43,20044.73,-360.67,4867.63,4092.74,9322.73,8982.23,9291.71,7583.19,7574.25,2253.19,22871.65,10060.43,5554.45,6224.2,4104.85,7799.02,7084.83,12272.27,7308.98
1876248,11014.27,9120.58,11047.75,3982.46,26164.33,4871.56,12963.61,2611.71,12079.51,11354.42,12948.05,10447.12,-1136.14,20096.19,-361.87,4886.72,4125.51,9375.71,9070.52,9290.06,7604.91,7606.08,2306.83,22993.87,10075.63,5576.49,6247.27,4156.08,7797.85,7072.09,12267.62,7289.04
1876249,10982.62,9075.84,11019.23,3946.83,26144.21,4847.38,12933.84,2568.57,12053.54,11326.7,12924.67,10418.28,-1188.89,20019.25,-391.2,4863.11,4096.49,9317.59,9058.49,9252.86,7581.35,7581.13,2259.36,22919.66,10050.42,5559.82,6233.23,4125.37,7806.57,7100.84,12261.0,7297.62
1876250,10951.01,9038.06,10987.8,3910.12,26114.75,4816.8,12898.79,2519.27,11994.8,11288.66,12894.45,10384.26,-1248.17,19934.98,-422.27,4832.63,4061.31,9248.62,8954.15,9217.19,7549.26,7547.78,2194.23,22756.67,9997.18,5524.5,6202.12,4057.91,7816.09,7100.03,12249.29,7300.12
1876251,10958.88,9045.26,11000.19,3914.28,26130.4,4832.85,12908.67,2520.34,11988.0,11313.25,12911.93,10397.5,-1237.79,19922.83,-404.21,4850.78,4075.26,9265.16,8951.61,9227.96,7567.9,7564.19,2209.47,22756.89,10003.08,5549.85,6223.62,4072.4,7822.26,7129.04,12263.87,7336.33
1876252,10963.4,9053.53,11005.6,3921.17,26133.61,4836.92,12914.97,2532.23,11987.46,11319.82,12913.63,10403.35,-1222.64,19942.72,-415.07,4851.36,4082.41,9282.63,8952.59,9228.99,7572.06,7570.85,2225.03,22783.18,10013.31,5556.6,6230.19,4090.68,7823.07,7150.95,12282.19,7345.23
1876253,10966.84,9063.1,11007.16,3927.6,26122.8,4834.06,12916.31,2541.44,12004.81,11311.9,12908.27,10397.63,-1221.03,19955.19,-414.85,4844.34,4077.32,9278.52,8951.38,9237.8,7566.56,7562.31,2219.84,22796.95,10037.01,5552.58,6222.19,4086.03,7816.05,7130.56,12280.45,7325.38
1876254,10986.06,9088.04,11023.7,3943.7,26132.63,4847.69,12931.11,2566.16,12035.12,11333.05,12920.92,10405.99,-1201.32,19986.3,-400.23,4853.23,4081.83,9294.35,8976.68,9241.15,7568.66,7563.74,2233.21,22860.74,10037.72,5546.9,6219.86,4092.65,7817.03,7105.57,12298.73,7349.97
1876255,11000.46,9102.84,11037.65,3956.62,26149.22,4862.85,12945.91,2582.79,12050.72,11360.1,12938.93,10421.32,-1179.77,20020.99,-368.71,4873.98,4096.99,9322.2,8982.23,9255.23,7585.6,7578.45,2264.86,22913.85,10046.08,5556.46,6228.81,4129.26,7805.14,7097.35,12289.57,7334.55
1876256,10986.24,9085.76,11022.05,3940.88,26141.21,4845.99,12929.23,2564.37,12040.39,11346.01,12922.71,10405.81,-1194.66,19991.76,-398.31,4859.0,4082.59,9309.5,8902.66,9249.6,7572.95,7563.52,2247.15,22860.07,10049.08,5542.2,6212.53,4105.61,7788.42,7067.31,12252.51,7292.26
1876257,10979.22,9074.63,11014.89,3938.51,26139.74,4839.64,12920.92,2556.91,12033.24,11329.03,12913.9,10399.73,-1206.95,19931.5,-411.32,4847.07,4074.63,9289.07,8950.35,9197.79,7562.44,7557.48,2220.15,22802.89,9990.47,5536.88,6209.09,4073.2,7793.96,7075.18,12251.04,7297.93
1876258,10979.71,9081.78,11022.58,3954.2,26146.22,4852.07,12934.55,2572.64,12041.06,11333.72,12927.94,10415.11,-1188.22,19976.51,-383.02,4865.04,4091.76,9307.27,9046.91,9227.52,7581.09,7576.97,2244.12,22868.47,9995.3,5558.03,6233.41,4104.41,7804.92,7128.33,12277.63,7324.67
1876259,10969.3,9069.62,11015.57,3943.47,26151.81,4850.51,12925.79,2552.3,12019.25,11329.79,12926.59,10412.78,-1205.47,20012.19,-399.11,4863.25,4090.06,9297.61,9011.24,9242.85,7577.46,7575.94,2241.92,22869.19,10034.73,5555.44,6232.2,4103.91,7827.09,7119.97,12267.8,7300.66
1876260,10964.34,9060.32,11009.4,3932.39,26149.44,4845.23,12915.96,2536.39,12002.57,11323.08,12921.72,10403.22,-1220.76,20009.55,-416.23,4855.92,4079.77,9286.21,8918.39,9217.68,7570.0,7566.69,2223.02,22780.41,10037.54,5551.41,6226.79,4084.96,7810.64,7106.78,12261.09,7303.03
1876261,10964.83,9073.38,11008.41,3932.74,26127.76,4839.56,12915.91,2544.57,12009.73,11310.16,12914.35,10395.39,-1216.92,19974.41,-403.54,4849.08,4072.98,9288.85,8936.63,9230.56,7566.2,7560.3,2230.39,22810.8,10052.21,5549.98,6224.2,4097.57,7810.82,7137.94,12280.54,7351.62
1876262,10975.82,9090.37,11015.12,3946.25,26119.4,4840.76,12921.77,2561.69,12037.26,11308.64,12914.79,10395.75,-1209.86,19940.89,-381.14,4847.24,4070.57,9283.89,9005.92,9231.32,7560.92,7552.7,2222.7,22841.2,10024.31,5536.3,6208.15,4081.79,7803.8,7090.11,12264.67,7320.82
1876263,10993.03,9095.42,11030.36,3958.76,26137.28,4856.5,12937.68,2582.92,12049.38,11327.06,12933.12,10410.32,-1188.62,19986.93,-345.74,4864.86,4085.18,9303.24,9037.61,9269.94,7573.04,7565.75,2241.16,22874.91,10006.92,5549.8,6217.09,4098.51,7789.76,7059.4,12267.58,7323.41
1876264,10990.62,9087.46,11028.48,3951.12,26144.3,4855.29,12936.47,2573.8,12034.85,11329.12,12933.35,10412.43,-1193.67,20028.24,-354.68,4868.52,4087.73,9304.49,9023.62,9291.8,7578.81,7567.5,2236.56,22886.89,10037.05,5551.1,6217.76,4092.78,7783.15,7042.32,12241.16,7289.49
1876265,10975.51,9080.53,11013.29,3929.39,26126.33,4840.45,12923.24,2553.78,11994.93,11322.05,12917.25,10398.61,-1211.69,20013.22,-403.49,4852.92,4074.01,9284.65,8978.43,9274.36,7571.16,7558.06,2218.14,22814.25,10064.86,5554.77,6217.72,4080.8,7779.39,7076.25,12281.75,7347.24
1876266,10971.13,9077.85,11009.49,3925.91,26129.77,4840.72,12919.8,2540.41,12003.02,11324.24,12917.3,10403.08,-1216.87,19997.39,-405.06,4851.85,4079.33,9284.83,8969.8,9255.46,7569.24,7562.49,2220.42,22800.21,10014.61,5551.55,6211.59,4076.78,7806.53,7058.73,12242.18,7306.61
1876267,10971.67,9068.42,11013.96,3935.74,26129.55,4847.15,12925.92,2545.01,12035.03,11330.68,12922.88,10413.95,-1208.65,20007.72,-403.85,4854.84,4089.7,9300.69,9003.42,9239.76,7564.32,7572.32,2239.47,22840.58,9999.95,5535.77,6222.82,4098.51,7822.17,7123.05,12254.7,7299.19
1876268,10981.81,9073.29,11025.98,3945.71,26145.01,4861.73,12936.16,2553.91,12042.81,11346.68,12938.89,10427.4,-1198.37,20022.51,-385.97,4872.14,4101.37,9312.36,8983.08,9257.2,7581.98,7584.66,2243.27,22855.06,10024.27,5555.3,6237.16,4098.01,7809.12,7132.84,12263.6,7299.99
1876269,10990.62,9087.15,11034.43,3956.53,26146.31,4867.41,12946.76,2572.33,12044.64,11343.42,12943.94,10431.6,-1180.44,20031.5,-369.97,4876.75,4105.79,9326.4,8950.0,9254.83,7588.82,7589.98,2255.02,22853.85,10026.72,5568.85,6247.94,4111.51,7803.44,7150.68,12302.22,7326.5
1876270,10997.19,9095.19,11036.67,3955.86,26144.7,4863.78,12947.96,2578.14,12036.59,11337.43,12938.04,10423.24,-1181.69,20013.13,-389.01,4869.51,4096.58,9317.91,8996.76,9254.11,7581.35,7578.76,2255.25,22841.43,10019.71,5562.81,6235.11,4121.21,7811.76,7122.96,12297.44,7338.08
1876271,10984.85,9077.31,11019.5,3929.75,26136.52,4844.79,12926.28,2552.7,12002.44,11337.65,12920.43,10399.1,-1215.31,19952.55,-412.7,4852.7,4072.4,9277.72,8999.35,9256.66,7566.47,7554.13,2219.71,22831.1,10038.88,5543.37,6206.32,4081.96,7809.79,7076.79,12261.18,7299.23
1876272,10974.62,9068.06,11010.65,3923.27,26124.81,4834.41,12917.79,2543.32,11996.9,11333.41,12911.4,10392.18,-1221.03,19948.93,-420.48,4845.05,4067.17,9274.59,8945.08,9252.06,7557.08,7547.96,2212.2,22777.77,10036.07,5529.96,6199.3,4071.41,7800.58,7085.55,12249.47,7287.21
1876273,10985.35,9080.13,11023.84,3943.03,26124.23,4846.48,12934.42,2562.27,12018.94,11330.14,12921.28,10410.32,-1200.02,19982.82,-407.43,4853.82,4086.26,9298.59,8943.47,9234.67,7570.0,7569.37,2240.85,22789.39,10014.88,5552.58,6226.57,4109.28,7826.2,7099.63,12277.14,7325.87
1876274,10971.89,9058.76,11015.88,3935.43,26133.39,4841.12,12924.94,2547.52,12008.88,11328.58,12915.42,10407.29,-1212.76,19976.07,-388.34,4848.81,4082.68,9288.67,8955.9,9227.6,7563.43,7566.83,2233.74,22805.84,9986.49,5535.68,6214.95,4094.12,7826.96,7074.64,12250.86,7293.91
1876275,10974.35,9048.08,11019.86,3944.68,26150.83,4847.69,12930.17,2550.02,12013.71,11334.3,12923.06,10418.86,-1203.02,19990.95,-388.65,4857.17,4095.11,9303.42,9002.52,9228.72,7570.36,7578.94,2240.05,22848.89,9973.39,5543.86,6227.02,4097.43,7829.1,7093.95,12246.43,7280.1
1876276,10981.32,9048.66,11024.95,3949.64,26161.06,4857.66,12935.0,2552.7,12026.27,11346.95,12934.28,10426.15,-1200.6,20005.62,-375.78,4870.31,4101.72,9306.86,9014.19,9227.43,7583.32,7587.21,2240.45,22877.5,10001.6,5561.11,6241.32,4099.27,7825.7,7123.99,12266.19,7314.34
1876277,10973.86,9050.89,11017.04,3939.05,26137.28,4848.27,12927.94,2547.79,12021.75,11322.23,12924.54,10413.59,-1212.54,19984.43,-375.11,4862.8,4089.07,9289.03,8974.14,9198.23,7577.69,7576.97,2229.94,22838.07,10011.79,5556.29,6235.47,4098.46,7820.88,7148.13,12292.3,7354.98
1876278,10977.17,9065.42,11016.01,3933.28,26130.66,4840.85,12923.69,2547.92,12016.88,11314.05,12917.65,10405.59,-1217.59,19975.49,-385.21,4856.68,4082.41,9280.94,8962.51,9222.6,7574.34,7567.32,2222.66,22808.84,10018.77,5547.21,6217.32,4085.63,7821.95,7098.42,12266.68,7322.16
1876279,10987.49,9087.86,11023.08,3937.39,26137.41,4845.14,12932.9,2565.27,12025.73,11329.25,12919.22,10405.77,-1205.97,19971.73,-406.85,4850.69,4082.05,9286.48,8966.45,9219.16,7565.98,7565.89,2228.29,22817.15,10009.02,5547.7,6226.35,4096.72,7817.66,7122.12,12300.84,7351.44
1876280,10988.03,9092.06,11024.51,3938.65,26138.58,4848.9,12935.45,2569.69,12026.04,11335.42,12922.8,10410.06,-1198.9,19980.63,-420.88,4854.71,4086.84,9296.14,8971.95,9208.83,7569.06,7569.95,2237.59,22858.73,9985.55,5546.63,6223.58,4099.58,7808.98,7123.77,12300.48,7357.12
1876281,10987.18,9094.75,11027.37,3947.9,26146.09,4852.7,12937.99,2573.36,12028.05,11337.92,12927.71,10419.44,-1185.85,19989.52,-390.31,4862.13,4097.52,9315.22,8944.63,9243.16,7576.3,7577.78,2252.79,22864.99,9994.05,5548.51,6219.69,4105.61,7810.06,7078.98,12242.1,7274.73
1876282,10994.24,9098.41,11037.56,3963.19,26160.57,4866.24,12949.48,2585.47,12038.52,11350.04,12941.57,10430.49,-1173.24,20005.62,-363.26,4876.21,4107.62,9326.98,8958.62,9300.11,7592.44,7592.04,2266.74,22873.03,10056.63,5574.21,6245.26,4129.84,7804.6,7114.29,12283.13,7305.67
1876283,10965.72,9056.79,11010.16,3931.0,26141.84,4842.01,12920.38,2539.52,12004.41,11320.04,12920.43,10406.17,-1218.35,19977.01,-392.68,4860.48,4084.16,9285.85,8936.09,9290.77,7581.85,7570.76,2228.96,22852.02,10078.45,5564.47,6219.19,4088.89,7799.55,7069.9,12253.36,7281.53
1876284,10954.32,9037.88,11001.22,3922.87,26139.74,4837.95,12912.11,2525.57,12006.33,11300.28,12917.88,10402.9,-1226.71,19977.86,-385.61,4859.9,4082.05,9284.07,8980.48,9279.55,7582.52,7568.93,2226.14,22837.89,10059.8,5565.94,6218.75,4088.4,7791.68,7065.92,12221.98,7266.87
1876285,10960.62,9049.73,11006.8,3927.29,26149.48,4845.77,12914.79,2529.82,12028.99,11309.98,12926.42,10407.78,-1223.04,19963.95,-376.94,4867.72,4087.37,9283.84,8988.53,9264.66,7588.19,7573.84,2223.33,22826.58,10019.97,5571.31,6224.78,4082.95,7805.32,7076.52,12223.36,7250.86
1876286,10962.77,9058.31,11006.8,3930.69,26128.25,4838.35,12916.36,2540.72,12009.86,11315.88,12915.33,10394.81,-1225.55,19937.35,-418.38,4849.7,4072.98,9269.18,8979.55,9233.33,7564.19,7559.18,2210.95,22803.12,10019.39,5549.89,6229.03,4082.19,7796.24,7153.59,12307.72,7340.18
1876287,10984.36,9084.06,11021.47,3944.46,26131.02,4845.99,12928.96,2562.14,12018.44,11338.64,12920.69,10403.66,-1207.4,19938.16,-408.41,4853.23,4080.94,9282.99,9000.65,9245.49,7571.39,7563.88,2223.95,22811.92,10021.81,5550.88,6224.51,4087.73,7794.63,7147.46,12313.31,7343.35
1876288,10986.24,9076.02,11020.44,3942.76,26126.91,4844.16,12928.07,2570.18,12042.49,11337.48,12919.67,10401.07,-1198.72,19931.36,-390.35,4854.13,4078.03,9288.85,8979.1,9262.43,7574.2,7561.19,2232.81,22832.17,10012.29,5558.48,6218.61,4098.82,7793.92,7132.49,12284.56,7327.89
1876289,10990.49,9082.27,11025.49,3949.06,26138.4,4849.03,12933.21,2574.65,12052.82,11338.77,12926.06,10408.0,-1191.84,20000.25,-371.58,4860.88,4084.74,9299.13,8953.84,9272.04,7576.17,7565.13,2234.68,22850.46,10010.81,5549.45,6213.52,4091.89,7794.99,7120.19,12253.36,7287.52
1876290,10987.0,9088.26,11026.65,3943.25,26121.1,4854.31,12933.7,2565.62,12036.46,11345.43,12932.0,10411.8,-1193.54,20047.64,-345.16,4869.46,4088.45,9309.46,8972.03,9264.71,7580.64,7569.64,2240.32,22853.76,10018.77,5552.62,6218.75,4095.15,7792.85,7086.17,12263.15,7299.45
1876291,10967.06,9070.11,11009.98,3926.04,26095.62,4841.07,12919.49,2545.55,12014.2,11331.66,12919.0,10403.13,-1206.19,20017.6,-377.21,4857.12,4081.61,9305.61,9012.4,9265.02,7568.57,7564.41,2251.67,22876.52,10023.06,5537.47,6209.36,4115.72,7793.2,7052.42,12227.43,7253.32
1876292,10969.52,9068.28,11012.17,3928.94,26115.15,4843.0,12921.86,2544.66,12024.52,11324.47,12919.76,10407.69,-1209.32,20007.81,-381.86,4857.21,4085.9,9301.01,9000.73,9275.8,7573.26,7568.84,2246.71,22894.53,10055.56,5546.67,6211.46,4110.58,7808.13,7035.26,12218.4,7271.87
1876293,10967.82,9059.79,11011.41,3929.48,26141.3,4843.76,12920.25,2540.86,12025.95,11328.31,12920.52,10407.42,-1213.79,19987.38,-375.96,4856.27,4083.57,9292.2,8875.7,9248.08,7566.91,7565.84,2225.65,22771.64,10028.02,5538.0,6214.46,4084.96,7788.51,7061.32,12240.53,7297.89
1876294,10969.12,9063.81,11012.08,3933.06,26148.41,4841.57,12922.57,2551.59,12028.32,11329.47,12918.28,10405.77,-1204.09,19964.58,-410.65,4852.34,4082.23,9299.71,8928.36,9246.02,7567.27,7565.08,2237.19,22793.68,10024.94,5545.42,6217.32,4101.14,7819.13,7075.09,12260.11,7316.04
1876295,10979.09,9075.26,11018.34,3936.9,26137.46,4839.29,12925.92,2557.67,12019.7,11320.53,12912.65,10397.27,-1212.45,19963.68,-424.06,4843.89,4071.19,9273.69,8991.62,9251.07,7564.77,7555.38,2207.91,22809.06,10035.53,5553.92,6218.52,4073.02,7799.91,7104.41,12304.05,7367.72
1876296,10998.76,9095.28,11034.52,3951.03,26152.26,4852.97,12939.25,2569.51,12032.12,11336.8,12927.09,10411.49,-1199.13,19997.84,-388.56,4859.09,4084.6,9287.51,9012.85,9267.84,7576.35,7564.63,2219.35,22830.7,10025.65,5550.79,6214.05,4075.57,7799.37,7113.04,12281.08,7325.25
1876297,11002.83,9104.04,11040.02,3963.23,26159.27,4858.64,12948.1,2586.72,12054.61,11343.47,12931.56,10418.55,-1179.59,20032.75,-396.74,4859.14,4090.86,9310.35,9042.26,9238.24,7570.04,7567.81,2239.38,22873.17,9988.15,5539.52,6214.37,4093.54,7794.68,7096.19,12263.55,7298.25
1876298,11006.89,9107.17,11046.55,3970.47,26171.12,4868.97,12955.92,2596.24,12062.74,11355.0,12943.49,10427.8,-1169.04,20040.75,-391.42,4873.53,4102.13,9324.66,9032.97,9263.64,7585.11,7581.18,2258.06,22904.64,10038.75,5555.75,6229.92,4114.11,7789.94,7083.76,12274.15,7314.43
1876299,10993.53,9090.59,11034.65,3954.78,26159.9,4860.66,12946.22,2578.59,12036.59,11341.99,12934.33,10421.68,-1182.23,20018.4,-391.42,4864.23,4099.0,9318.89,8996.31,9233.68,7576.7,7582.96,2263.92,22864.58,9971.02,5553.87,6238.68,4133.15,7820.52,7129.89,12286.84,7329.14
1876300,10977.93,9073.38,11019.5,3937.66,26150.96,4847.78,12929.41,2552.3,12007.76,11325.81,12922.17,10410.28,-1205.3,19990.55,-381.23,4854.71,4088.85,9299.09,8989.6,9217.99,7567.99,7572.5,2243.09,22847.28,9943.53,5539.79,6223.98,4106.95,7822.53,7113.85,12258.32,7297.35
1876301,10978.51,9068.46,11022.9,3941.42,26159.86,4854.98,12932.54,2556.23,12006.37,11331.98,12929.99,10416.54,-1198.9,19995.69,-374.12,4866.56,4095.51,9305.17,9039.45,9241.51,7579.97,7580.28,2253.77,22914.29,9985.87,5554.05,6232.56,4118.71,7815.78,7115.14,12259.93,7307.9
1876302,10986.24,9073.38,11030.63,3955.32,26168.93,4862.09,12940.72,2576.62,12009.86,11349.05,12938.22,10425.17,-1179.77,20011.25,-376.31,4875.72,4103.69,9315.94,9076.06,9272.49,7592.26,7586.0,2256.68,22957.48,10019.84,5568.09,6234.84,4115.0,7766.25,7107.59,12248.4,7285.42
1876303,11000.72,9086.92,11042.12,3966.27,26173.58,4869.24,12949.71,2582.25,12028.37,11364.74,12945.5,10427.09,-1174.14,19996.94,-359.24,4883.14,4105.75,9320.81,9004.36,9296.49,7601.11,7585.33,2252.47,22881.53,10052.07,5575.91,6233.05,4111.65,7748.41,7090.78,12256.0,7302.63
1876304,11001.57,9082.77,11038.86,3962.07,26159.19,4862.22,12943.58,2578.59,12046.65,11354.37,12937.99,10417.12,-1182.68,19996.23,-373.54,4874.07,4094.12,9308.29,8897.25,9239.05,7590.88,7573.22,2226.95,22758.01,10030.48,5562.63,6224.74,4081.12,7767.59,7092.39,12281.88,7322.92
1876305,10978.33,9060.91,11015.65,3939.14,26136.25,4838.62,12920.83,2552.88,12000.2,11332.07,12916.76,10393.61,-1213.03,19932.48,-399.74,4850.91,4069.72,9271.1,8834.48,9208.65,7567.09,7549.48,2192.93,22697.03,9991.45,5543.23,6204.84,4054.79,7792.89,7077.05,12267.71,7317.07
1876306,10975.78,9071.05,11013.78,3929.26,26143.23,4837.86,12918.28,2542.96,12006.06,11337.3,12917.03,10392.13,-1224.29,19922.96,-398.67,4851.13,4068.64,9260.95,8918.93,9219.11,7567.0,7548.09,2192.35,22713.49,9978.71,5540.28,6200.96,4055.77,7797.76,7072.4,12263.55,7325.16
1876307,10979.98,9076.42,11020.44,3927.34,26157.04,4849.75,12923.06,2542.33,12020.95,11350.62,12931.87,10403.26,-1223.94,19951.21,-371.58,4868.93,4081.65,9270.88,8971.14,9273.25,7587.93,7562.0,2206.7,22764.85,10049.52,5563.89,6214.86,4071.5,7806.97,7071.69,12254.03,7305.04
1876308,10958.97,9049.77,11003.5,3914.42,26138.31,4834.73,12907.19,2525.48,12015.0,11327.19,12916.49,10391.68,-1241.46,19945.09,-382.39,4853.99,4071.1,9259.93,8959.52,9281.7,7570.58,7551.45,2199.5,22774.15,10024.76,5542.61,6202.3,4065.29,7809.65,7073.61,12233.74,7273.12
1876309,10961.25,9047.49,11008.5,3923.4,26143.05,4842.77,12914.88,2534.96,12027.88,11322.86,12922.48,10401.83,-1227.96,19978.12,-391.78,4857.21,4081.29,9275.48,8966.04,9260.64,7571.61,7563.2,2213.23,22796.45,9991.27,5547.52,6219.15,4078.43,7814.35,7116.84,12265.12,7297.58
1876310,10971.44,9055.5,11018.25,3933.33,26153.15,4853.41,12924.27,2544.7,12027.97,11330.28,12933.84,10414.97,-1211.96,20007.27,-382.71,4869.28,4095.11,9293.05,8979.28,9247.86,7587.25,7579.92,2232.36,22829.54,10003.57,5570.14,6236.94,4096.58,7823.83,7140.4,12279.56,7301.82
1876311,10980.88,9067.75,11023.03,3937.89,26150.78,4852.52,12928.25,2553.42,12027.74,11332.83,12931.65,10410.73,-1204.13,20001.15,-382.8,4864.54,4091.13,9296.22,8985.18,9234.53,7577.6,7572.95,2237.14,22867.27,10003.08,5556.38,6233.63,4103.42,7837.24,7152.78,12292.34,7333.07
1876312,10981.72,9074.36,11019.37,3935.02,26136.7,4841.97,12921.28,2558.87,12033.42,11330.23,12919.71,10395.04,-1204.54,19994.8,-412.3,4850.28,4074.19,9289.38,8986.03,9213.52,7559.18,7552.34,2226.05,22863.42,9991.45,5530.98,6210.25,4092.07,7818.77,7099.76,12279.29,7338.21
1876313,10998.09,9091.97,11032.2,3948.66,26143.14,4852.52,12931.51,2572.51,12052.87,11339.22,12929.46,10409.7,-1192.51,20004.54,-390.31,4859.09,4088.63,9302.44,9003.42,9221.35,7568.93,7565.22,2238.04,22842.37,9962.49,5535.59,6208.33,4096.76,7803.49,7048.67,12234.41,7265.79
1876314,10996.92,9092.47,11034.97,3951.03,26140.86,4857.84,12937.55,2576.17,12049.6,11345.88,12935.58,10414.12,-1189.07,20000.25,-370.99,4867.67,4095.42,9306.64,9000.56,9252.95,7581.04,7574.74,2245.28,22816.93,10003.17,5554.1,6230.37,4114.42,7806.93,7098.2,12270.62,7287.61
1876315,10983.78,9077.62,11024.55,3940.57,26141.93,4852.52,12929.32,2563.66,12036.77,11344.09,12931.29,10407.29,-1199.31,19990.28,-362.28,4867.09,4088.89,9297.57,8975.61,9265.87,7580.91,7569.37,2233.61,22819.66,10005.53,5551.91,6225.54,4099.04,7817.03,7100.21,12272.27,7313.89
1876316,10964.02,9058.85,11007.92,3927.69,26127.58,4836.56,12916.45,2552.7,12021.48,11315.48,12911.44,10393.61,-1208.65,19980.13,-412.84,4843.98,4075.39,9291.66,8960.28,9250.09,7562.31,7557.08,2229.45,22828.19,10006.92,5545.15,6221.56,4095.87,7809.52,7118.45,12286.58,7346.75
1876317,10959.02,9051.38,11005.15,3924.83,26136.74,4837.5,12912.29,2542.91,12020.01,11308.28,12914.93,10397.09,-1213.43,19987.69,-390.8,4849.84,4079.15,9293.14,8960.32,9260.77,7566.24,7559.99,2228.92,22835.84,10011.12,5542.25,6211.91,4084.6,7821.28,7090.47,12240.26,7297.35
1876318,10978.55,9062.34,11024.95,3942.36,26155.47,4856.18,12930.31,2555.47,12033.64,11318.66,12934.78,10417.97,-1196.58,20007.31,-372.87,4870.18,4099.27,9313.48,8922.32,9254.92,7586.14,7581.44,2247.69,22842.5,10023.6,5564.2,6238.95,4109.73,7827.13,7121.4,12264.45,7307.46
1876319,10992.99,9081.56,11036.62,3958.23,26162.67,4864.45,12945.06,2577.74,12053.09,11333.41,12939.69,10429.73,-1173.65,20033.56,-389.41,4872.32,4108.43,9334.62,8970.56,9257.91,7590.56,7589.22,2261.59,22905.44,10027.48,5567.1,6243.56,4118.85,7823.6,7127.48,12281.21,7310.27
1876320,10999.65,9090.95,11039.35,3959.97,26161.51,4862.98,12946.94,2583.59,12051.3,11343.24,12934.78,10421.77,-1178.16,20020.37,-387.53,4864.72,4099.09,9318.93,8994.25,9251.61,7581.94,7578.0,2250.64,22907.23,10000.98,5562.01,6237.66,4116.92,7816.41,7114.74,12298.51,7318.54
1876321,11016.73,9103.64,11051.64,3969.49,26175.95,4873.4,12957.26,2594.19,12058.68,11372.03,12949.44,10431.56,-1168.37,20025.69,-326.29,4882.2,4108.83,9329.39,8983.84,9256.62,7593.92,7585.47,2265.39,22886.62,10005.67,5564.06,6235.15,4129.26,7798.03,7097.17,12283.76,7319.21
1876322,11022.85,9110.17,11059.46,3977.94,26186.19,4882.02,12967.59,2603.71,12063.82,11380.66,12960.75,10443.05,-1156.7,20038.29,-330.67,4895.66,4121.04,9342.85,9044.81,9275.84,7606.7,7597.18,2277.82,22880.18,10011.12,5573.54,6248.39,4143.12,7802.41,7111.57,12274.95,7300.79
1876323,10968.9,9056.84,11006.58,3922.91,26130.71,4829.72,12915.02,2541.08,11997.92,11321.2,12908.31,10391.06,-1226.31,19955.01,-424.59,4842.77,4068.29,9266.77,8978.43,9219.38,7561.33,7547.42,2203.79,22798.38,9981.89,5534.02,6204.75,4071.64,7803.13,7082.46,12247.37,7289.71
1876324,10945.69,9034.04,10986.15,3900.83,26113.59,4813.36,12895.66,2515.15,11980.89,11314.18,12895.75,10375.14,-1250.0,19929.22,-410.56,4834.28,4052.86,9244.73,8950.09,9201.23,7552.21,7532.45,2183.72,22761.9,9978.31,5522.71,6189.91,4049.2,7798.88,7066.15,12242.05,7305.18
1876325,10966.57,9057.42,11012.35,3925.95,26138.49,4843.8,12923.96,2542.87,12016.43,11341.59,12930.89,10408.18,-1216.78,19968.69,-355.53,4873.44,4086.93,9283.93,8990.99,9246.34,7589.89,7567.0,2224.18,22824.53,10029.27,5558.7,6222.55,4089.65,7825.79,7085.01,12254.93,7315.86
1876326,10962.86,9050.0,11009.49,3924.74,26132.77,4843.0,12920.56,2535.94,12004.05,11317.81,12928.29,10412.83,-1218.48,19973.79,-412.43,4865.48,4091.17,9288.31,8991.66,9273.65,7587.88,7573.71,2234.41,22823.28,10038.48,5565.23,6222.99,4099.98,7838.76,7067.13,12224.12,7262.71
1876327,10950.92,9035.83,10996.66,3914.24,26116.31,4827.71,12906.57,2525.08,11999.22,11300.33,12909.43,10394.37,-1235.11,19926.04,-430.0,4843.0,4071.95,9263.59,8959.96,9264.13,7566.42,7556.23,2207.32,22806.69,10028.69,5552.08,6217.99,4079.46,7817.66,7092.34,12243.26,7266.46
1876328,10965.23,9049.73,11007.38,3922.87,26119.98,4832.09,12915.82,2547.03,12028.28,11318.88,12912.2,10392.62,-1220.18,19939.19,-403.49,4845.32,4070.21,9275.04,8890.59,9250.85,7564.86,7553.73,2209.38,22787.92,10005.49,5551.15,6222.55,4079.24,7798.75,7168.25,12300.88,7348.94
1876329,10981.46,9066.18,11018.25,3932.83,26129.64,4840.14,12924.36,2561.33,12035.43,11321.74,12920.78,10399.55,-1203.1,19984.07,-394.33,4853.06,4076.65,9292.65,8880.62,9216.21,7569.46,7555.74,2221.36,22778.84,9970.17,5545.74,6213.43,4082.01,7809.65,7122.12,12278.04,7323.59
1876330,10993.88,9084.42,11030.81,3948.66,26140.86,4852.25,12936.88,2578.05,12053.09,11328.04,12932.9,10413.77,-1185.8,19992.7,-386.6,4866.91,4090.32,9306.42,8929.79,9215.36,7584.3,7567.41,2231.73,22810.63,9977.51,5551.95,6218.21,4090.1,7813.41,7066.06,12255.73,7291.0
1876331,10992.27,9085.45,11032.46,3949.69,26143.99,4855.69,12938.8,2577.07,12048.08,11343.02,12935.58,10416.9,-1187.59,19990.24,-377.25,4870.4,4096.23,9306.33,9025.77,9264.53,7591.59,7575.5,2241.25,22900.44,10042.37,5568.18,6228.89,4100.38,7808.27,7065.61,12263.33,7282.02
1876332,10986.46,9075.61,11028.04,3946.87,26146.62,4852.25,12935.18,2569.38,12036.41,11349.01,12930.31,10416.0,-1190.19,20036.15,-375.91,4862.93,4096.18,9315.63,9031.98,9284.24,7580.28,7575.99,2255.56,22939.55,10024.13,5557.81,6229.48,4118.67,7802.68,7075.8,12253.94,7278.26
1876333,10978.73,9062.02,11020.84,3943.03,26150.16,4847.47,12930.22,2560.84,12015.54,11341.23,12925.08,10411.84,-1197.87,20029.09,-388.74,4859.54,4091.76,9306.95,8986.65,9280.13,7577.64,7573.35,2246.62,22856.67,10004.51,5553.78,6229.48,4112.9,7809.88,7109.69,12271.06,7299.9
1876334,10971.17,9048.52,11017.49,3938.29,26157.08,4851.09,12927.4,2553.91,12006.51,11340.65,12931.2,10410.46,-1205.3,19993.59,-376.76,4869.95,4091.84,9294.53,9011.15,9290.95,7592.93,7578.94,2239.06,22811.74,10054.17,5578.68,6242.98,4116.12,7792.67,7156.85,12302.85,7354.89
1876335,10956.91,9034.08,11004.21,3923.58,26142.29,4838.75,12910.32,2532.99,12005.75,11324.51,12920.16,10400.4,-1221.93,19957.25,-373.1,4859.98,4082.01,9279.91,9006.72,9262.21,7579.66,7564.99,2222.17,22808.93,10000.35,5554.05,6213.96,4090.32,7812.74,7083.89,12228.33,7276.3
1876336,10965.59,9034.84,11009.17,3929.57,26130.26,4838.84,12913.63,2538.22,12011.43,11330.81,12918.32,10395.62,-1223.58,19943.61,-379.04,4854.66,4076.78,9275.26,8946.29,9242.98,7571.83,7557.21,2212.33,22788.45,9970.71,5547.75,6212.94,4075.75,7822.44,7056.49,12236.95,7279.25
1876337,10970.86,9027.65,11009.62,3933.19,26120.7,4832.8,12911.4,2545.6,12024.66,11328.85,12908.31,10385.25,-1225.64,19950.0,-409.89,4840.4,4064.93,9271.5,8931.04,9231.76,7553.73,7543.18,2205.49,22767.22,9957.61,5523.7,6201.94,4069.85,7807.02,7067.8,12247.64,7298.38
1876338,10981.19,9047.85,11020.21,3940.52,26132.85,4844.2,12921.68,2562.54,12039.45,11344.27,12920.16,10394.41,-1210.17,19969.81,-403.14,4852.38,4074.23,9285.18,8961.93,9240.48,7566.65,7554.53,2220.78,22801.95,9963.11,5538.0,6213.92,4084.78,7802.99,7097.17,12271.82,7327.57
1876339,10997.01,9083.61,11036.53,3954.29,26150.2,4862.8,12940.94,2583.24,12060.73,11359.29,12941.53,10417.03,-1187.64,19994.48,-386.15,4876.17,4098.01,9306.73,9009.32,9249.55,7594.18,7578.98,2241.57,22844.02,9995.16,5572.25,6235.96,4103.87,7815.24,7093.64,12284.12,7338.48
1876340,10996.12,9084.55,11035.06,3949.11,26151.9,4862.8,12938.58,2576.75,12054.3,11359.87,12943.76,10420.43,-1189.96,19998.69,-333.04,4883.81,4100.38,9308.12,9006.5,9282.46,7600.67,7580.55,2242.82,22870.66,10010.85,5569.12,6231.67,4102.57,7827.72,7074.28,12261.9,7313.13
1876341,10989.06,9079.46,11030.5,3943.43,26152.88,4858.73,12937.28,2570.0,12044.64,11349.9,12941.62,10423.83,-1187.46,20020.64,-356.56,4882.25,4104.94,9320.05,9019.73,9266.72,7599.55,7587.79,2261.28,22928.82,10014.88,5569.74,6242.53,4125.42,7834.51,7108.7,12273.12,7306.16
1876342,10990.93,9081.69,11036.08,3950.4,26162.63,4864.1,12946.26,2577.33,12057.74,11348.03,12948.72,10436.83,-1172.71,20053.18,-392.54,4889.76,4119.65,9341.2,9028.23,9287.64,7613.81,7602.68,2278.81,22957.83,10065.62,5589.81,6255.27,4134.22,7795.75,7128.91,12279.02,7292.08
1876343,10991.78,9077.36,11038.81,3954.6,26173.0,4870.36,12951.32,2582.57,12065.2,11355.49,12955.61,10443.72,-1162.29,20061.09,-385.75,4895.7,4126.31,9356.93,9005.16,9300.74,7617.3,7610.72,2296.91,22954.26,10062.76,5592.99,6263.14,4160.73,7784.8,7133.74,12278.84,7303.79
1876344,10971.26,9054.83,11016.24,3928.18,26153.96,4844.92,12925.08,2549.22,12027.52,11338.59,12929.99,10412.83,-1203.46,19998.96,-379.26,4869.33,4093.72,9306.37,8992.06,9278.79,7588.82,7575.23,2247.83,22894.04,10035.67,5557.58,6225.68,4116.25,7800.67,7098.51,12237.62,7253.05
1876345,10978.42,9064.84,11018.02,3929.35,26140.59,4840.9,12925.57,2547.34,12014.69,11327.77,12921.14,10400.49,-1221.34,19958.59,-390.66,4856.68,4079.28,9268.96,8985.62,9246.42,7576.97,7559.99,2205.58,22809.11,10011.61,5555.93,6222.59,4073.07,7795.8,7117.73,12289.35,7335.35
1876346,10993.97,9081.47,11029.6,3942.62,26148.32,4850.69,12936.92,2565.27,12029.8,11342.97,12930.08,10411.44,-1202.61,19978.21,-374.48,4862.89,4089.16,9288.63,8981.02,9237.31,7577.38,7567.09,2223.82,22817.87,9983.0,5549.18,6221.65,4088.63,7792.31,7105.66,12288.72,7347.29
1876347,10979.76,9066.58,11017.98,3931.94,26141.53,4839.56,12925.92,2552.93,12017.95,11339.17,12922.12,10401.79,-1213.07,19968.56,-377.92,4857.88,4080.09,9279.55,8949.95,9236.63,7572.68,7558.11,2211.66,22789.35,9971.56,5541.58,6210.16,4076.56,7786.54,7084.39,12262.03,7307.1
1876348,10981.9,9069.27,11022.05,3939.63,26142.6,4845.5,12933.35,2560.44,12027.56,11333.18,12928.83,10412.07,-1202.48,19983.71,-372.38,4867.36,4092.87,9295.46,8924.2,9260.37,7589.22,7572.23,2226.14,22791.36,10007.23,5561.16,6224.69,4089.21,7810.41,7100.39,12273.61,7311.79
1876349,10990.71,9076.24,11033.09,3949.96,26158.43,4858.38,12943.58,2567.72,12039.05,11342.3,12941.03,10426.28,-1191.26,20001.73,-381.28,4877.24,4107.94,9309.28,8933.1,9277.45,7600.13,7588.06,2238.84,22772.76,10020.69,5574.97,6242.22,4101.95,7815.47,7117.69,12283.31,7309.42
1876350,10964.69,9050.58,11010.25,3929.03,26140.1,4837.05,12921.95,2543.36,12020.1,11317.76,12918.91,10406.12,-1212.22,19983.76,-414.0,4850.46,4088.0,9293.01,8912.71,9233.68,7567.23,7567.54,2226.59,22783.22,9948.98,5535.32,6217.99,4090.91,7822.17,7092.92,12240.84,7282.65
1876351,10962.37,9043.43,11010.87,3929.7,26148.46,4843.94,12924.0,2540.86,12017.59,11324.2,12926.15,10411.35,-1213.52,19982.77,-401.26,4858.91,4092.87,9292.78,8941.77,9233.77,7576.35,7575.1,2228.65,22797.84,9968.97,5547.97,6227.37,4094.75,7832.32,7071.78,12237.85,7295.34
1876352,10970.86,9051.52,11019.99,3940.57,26149.93,4852.52,12933.57,2555.34,12023.9,11328.36,12932.54,10417.84,-1204.27,19969.63,-393.61,4866.33,4099.49,9297.16,8988.53,9243.52,7588.1,7583.32,2237.54,22816.44,9987.21,5568.98,6242.53,4108.65,7835.31,7126.67,12279.11,7336.6
1876353,10980.52,9064.12,11027.01,3948.48,26146.22,4855.07,12940.68,2569.47,12029.22,11334.79,12933.57,10417.16,-1192.55,19990.24,-384.09,4866.91,4099.49,9303.91,8973.55,9248.75,7588.91,7582.74,2243.31,22820.95,10001.42,5571.89,6244.81,4115.13,7835.85,7162.48,12310.8,7361.06
1876354,10990.49,9074.63,11033.67,3953.31,26147.65,4858.55,12945.37,2575.41,12032.44,11342.12,12936.3,10421.28,-1183.84,20021.4,-373.01,4869.33,4102.98,9313.93,8967.79,9248.03,7590.88,7583.81,2247.47,22830.7,9991.95,5567.42,6236.05,4110.66,7831.96,7130.83,12292.52,7328.06
1876355,10982.44,9067.03,11026.96,3947.27,26136.92,4853.19,12940.86,2571.26,12028.28,11332.02,12929.28,10415.38,-1189.43,20010.53,-388.65,4861.46,4097.03,9308.79,8995.28,9241.82,7583.77,7578.85,2246.66,22843.39,9984.35,5561.87,6236.63,4115.0,7833.97,7122.07,12297.08,7315.19
1876356,10981.01,9066.27,11026.29,3946.78,26142.2,4853.5,12940.36,2570.9,12035.25,11336.54,12929.5,10413.95,-1190.54,20005.3,-378.82,4861.42,4094.71,9305.48,9007.66,9233.15,7581.62,7574.43,2241.84,22826.63,9955.24,5549.76,6224.69,4105.93,7827.13,7072.94,12275.31,7327.62
1876357,10984.18,9062.83,11027.41,3944.37,26155.65,4857.53,12938.4,2564.86,12037.31,11346.15,12935.13,10414.57,-1194.57,19997.52,-358.57,4871.07,4095.78,9305.17,9002.03,9262.92,7590.34,7576.75,2240.9,22834.14,10007.86,5560.67,6227.78,4104.41,7829.77,7080.0,12260.29,7316.62
1876358,10974.89,9049.82,11019.14,3933.1,26153.24,4849.48,12927.67,2551.32,12026.09,11339.8,12928.74,10405.9,-1205.52,19982.01,-368.85,4865.71,4089.21,9297.16,8993.0,9249.87,7586.09,7570.8,2235.8,22857.07,10026.59,5560.35,6221.74,4101.9,7833.12,7064.0,12246.7,7305.09
1876359,10959.06,9030.51,11006.76,3918.39,26140.54,4838.53,12914.26,2535.05,11999.58,11324.82,12916.85,10393.47,-1219.02,19973.12,-384.72,4853.37,4076.6,9283.62,8969.35,9215.13,7571.83,7559.63,2220.02,22822.07,9978.94,5546.85,6215.13,4088.98,7812.56,7062.53,12250.68,7311.21
1876360,10969.48,9033.64,11015.43,3924.12,26154.63,4849.17,12921.1,2537.5,11999.62,11336.49,12928.65,10403.8,-1213.3,19980.94,-375.69,4867.9,4086.21,9290.14,8963.54,9233.06,7588.91,7568.7,2226.01,22826.45,10004.33,5558.97,6216.87,4088.4,7830.08,7071.02,12249.69,7312.69
1876361,10981.81,9047.67,11027.5,3936.9,26164.01,4858.6,12932.45,2550.29,12031.77,11348.34,12939.25,10411.53,-1205.3,19993.95,-363.62,4877.87,4093.81,9296.18,8990.32,9259.17,7599.59,7573.89,2232.13,22844.87,10030.7,5569.79,6224.02,4097.21,7837.33,7082.06,12240.66,7281.66
1876362,10984.5,9053.93,11027.23,3938.51,26147.65,4852.07,12932.85,2559.68,12036.86,11336.4,12930.66,10407.11,-1204.04,19991.36,-393.79,4865.17,4086.93,9291.44,8991.62,9273.56,7587.52,7565.13,2223.91,22836.82,10020.87,5556.91,6214.9,4086.61,7824.05,7091.67,12254.48,7294.22
1876363,10981.32,9051.74,11024.1,3937.39,26136.7,4848.14,12933.08,2562.58,12033.55,11330.99,12927.22,10405.81,-1202.17,19988.72,-394.55,4857.7,4085.63,9292.11,8973.55,9260.77,7577.73,7564.23,2224.98,22830.03,9983.36,5552.62,6217.18,4092.29,7825.3,7095.16,12262.7,7298.6
1876364,10975.65,9049.19,11020.71,3935.56,26136.88,4846.26,12933.12,2562.67,12033.55,11332.47,12927.85,10407.91,-1199.44,19996.72,-390.53,4858.87,4088.85,9297.48,8965.73,9253.18,7576.48,7566.91,2229.85,22838.21,9959.09,5545.07,6213.11,4090.86,7816.67,7089.79,12259.75,7301.78
1876365,10975.33,9047.05,11021.02,3936.46,26145.42,4850.24,12934.64,2564.82,12036.32,11339.17,12933.3,10411.98,-1192.64,20012.99,-384.09,4867.67,4094.17,9309.23,8950.35,9267.08,7587.03,7573.49,2242.68,22867.8,9998.07,5559.64,6224.69,4107.8,7821.68,7097.71,12265.25,7294.54
1876366,10962.99,9032.03,11009.26,3921.75,26145.19,4841.39,12921.05,2546.13,12022.51,11338.5,12926.64,10402.32,-1208.65,19995.33,-373.54,4865.53,4085.76,9298.01,8989.6,9285.18,7586.45,7566.42,2239.02,22881.21,10029.94,5555.88,6212.04,4105.3,7822.57,7074.82,12240.89,7287.52
1876367,10962.1,9027.42,11013.29,3922.19,26163.79,4850.11,12923.51,2540.32,12023.05,11355.49,12938.93,10409.83,-1211.06,19992.7,-335.5,4882.07,4093.68,9298.1,9031.71,9296.98,7600.93,7574.83,2233.7,22905.75,10041.03,5567.6,6216.33,4091.53,7805.27,7050.41,12219.16,7263.15
1876368,10964.6,9025.77,11016.41,3929.26,26171.03,4857.08,12928.11,2545.37,12028.28,11358.17,12944.3,10417.08,-1204.13,20003.16,-363.04,4882.6,4100.56,9306.86,9017.86,9261.71,7598.79,7584.22,2245.14,22902.45,10014.83,5570.64,6235.38,4113.44,7814.71,7094.8,12244.42,7282.24
1876369,10962.19,9024.11,11011.01,3925.01,26161.06,4848.54,12921.99,2543.9,12022.11,11345.66,12932.54,10406.93,-1209.23,19994.8,-384.32,4866.38,4090.1,9296.18,8987.32,9260.82,7584.04,7572.82,2234.64,22840.31,9992.3,5555.7,6223.98,4102.08,7814.62,7107.14,12254.97,7288.77
1876370,10979.22,9039.76,11025.49,3936.46,26167.23,4859.09,12936.34,2561.24,12028.68,11356.61,12941.17,10412.56,-1196.53,19989.57,-357.49,4875.45,4096.05,9302.08,8984.73,9269.54,7596.37,7579.25,2241.79,22810.36,9985.78,5579.58,6239.22,4115.45,7807.51,7126.45,12294.93,7323.59
1876371,10975.87,9036.41,11020.48,3930.46,26158.16,4853.37,12930.35,2556.01,12020.37,11352.54,12934.42,10405.9,-1204.54,19972.71,-372.34,4869.82,4089.12,9291.71,8956.84,9275.08,7593.33,7571.74,2229.05,22819.7,9974.24,5577.7,6229.07,4098.86,7823.56,7108.66,12278.17,7319.12
1876372,10953.25,9019.29,10999.79,3913.12,26135.22,4832.76,12912.65,2541.08,12004.18,11328.8,12912.29,10387.17,-1220.27,19964.76,-403.18,4845.05,4070.65,9275.8,8931.49,9249.42,7566.56,7553.24,2211.84,22778.48,9964.72,5542.92,6216.38,4082.77,7818.91,7137.76,12294.17,7332.31
1876373,10944.13,9011.33,10989.37,3905.57,26129.23,4822.97,12902.9,2531.92,11999.0,11322.14,12903.3,10378.85,-1226.71,19963.24,-403.23,4838.17,4063.37,9272.93,8946.2,9248.53,7560.48,7546.44,2208.58,22783.4,9971.47,5534.92,6205.47,4076.87,7812.29,7125.91,12273.83,7322.57
1876374,10946.28,9009.85,10991.78,3907.67,26142.51,4828.47,12904.24,2528.74,12001.46,11329.56,12909.21,10384.35,-1225.28,19964.27,-391.47,4846.57,4069.54,9278.83,8955.14,9254.74,7568.08,7552.88,2215.86,22813.89,9981.35,5542.25,6207.71,4082.1,7827.63,7101.15,12248.8,7298.87
1876375,10943.77,9002.25,10995.63,3908.02,26150.65,4836.2,12910.5,2531.11,12001.1,11339.08,12919.22,10392.44,-1218.39,19973.16,-368.4,4859.49,4079.82,9288.85,8953.44,9260.73,7582.25,7565.53,2228.42,22832.89,9999.05,5562.05,6228.27,4100.11,7834.64,7122.56,12282.15,7337.18
1876376,10935.23,8985.58,10990.58,3900.78,26155.16,4835.17,12904.96,2523.33,11999.36,11339.67,12919.67,10395.53,-1218.13,19991.31,-373.45,4861.19,4083.66,9294.93,8946.91,9251.66,7582.92,7569.69,2232.22,22841.47,9992.57,5558.88,6224.2,4097.43,7819.89,7112.06,12262.61,7313.98
1876377,10947.48,9001.23,11003.14,3918.84,26165.58,4846.89,12917.65,2542.51,12020.72,11349.59,12929.14,10405.41,-1200.65,20015.41,-373.77,4867.23,4092.96,9309.14,8990.54,9264.93,7586.99,7576.75,2240.58,22881.93,9994.85,5561.52,6231.71,4102.57,7806.66,7108.61,12264.58,7303.25
1876378,10943.24,9001.76,10995.18,3911.69,26146.18,4835.49,12909.65,2537.41,12010.71,11340.92,12918.68,10392.71,-1212.14,19988.05,-376.45,4857.88,4082.59,9293.1,8996.4,9259.34,7581.98,7567.23,2229.54,22861.1,9994.45,5560.53,6223.66,4092.25,7822.89,7095.38,12270.71,7290.51
1876379,10946.9,9008.11,10995.9,3912.32,26136.07,4833.12,12911.17,2542.87,12008.83,11340.74,12916.31,10385.65,-1211.06,19976.83,-371.75,4857.3,4076.78,9289.97,8935.91,9261.27,7585.24,7563.2,2228.16,22841.69,10019.35,5578.15,6231.17,4099.09,7829.19,7120.33,12294.85,7317.25
1876380,10938.99,9000.51,10984.81,3899.35,26126.91,4821.09,12899.37,2533.26,12000.16,11338.06,12905.58,10372.51,-1222.55,19971.86,-376.54,4847.56,4062.07,9277.27,8918.61,9259.48,7572.46,7547.42,2211.53,22801.06,9996.59,5553.43,6207.88,4078.66,7790.48,7102.22,12277.1,7325.87
1876381,10937.69,8998.1,10985.7,3900.69,26133.79,4822.34,12901.25,2530.8,12001.46,11334.97,12908.98,10377.2,-1223.8,19971.78,-389.77,4851.54,4067.62,9275.48,8965.46,9270.83,7577.06,7551.36,2209.65,22789.7,10001.2,5549.63,6206.99,4077.27,7805.05,7084.65,12248.35,7288.19
1876382,10928.13,8985.98,10978.91,3895.51,26132.09,4818.95,12896.64,2525.7,11997.79,11327.69,12905.72,10376.4,-1223.58,19970.3,-392.32,4847.24,4066.05,9278.75,9025.55,9267.97,7570.13,7550.46,2217.11,22845.36,10026.01,5541.18,6207.08,4085.0,7794.32,7088.9,12256.04,7304.51
1876383,10945.47,9003.64,10999.25,3919.42,26162.18,4841.48,12918.68,2546.89,12027.03,11342.35,12929.55,10404.92,-1197.03,20011.07,-347.97,4872.86,4095.69,9312.41,9034.13,9285.41,7597.54,7578.31,2250.15,22911.57,10040.09,5568.36,6228.72,4110.89,7790.97,7079.29,12245.36,7277.73
1876384,10943.1,8997.2,11001.39,3918.62,26165.4,4846.71,12922.48,2543.41,12019.11,11343.33,12936.79,10410.24,-1198.99,20001.55,-347.75,4882.02,4103.29,9315.58,8962.56,9293.27,7609.34,7589.49,2263.61,22861.68,10049.93,5588.79,6247.49,4135.43,7825.08,7107.36,12259.22,7291.41
1876385,10925.18,8974.05,10981.37,3897.21,26136.7,4826.37,12900.35,2522.04,11993.19,11320.85,12913.23,10386.01,-1222.69,19967.8,-380.74,4855.11,4077.58,9289.3,8956.52,9257.02,7577.6,7566.11,2235.35,22814.29,9988.19,5556.6,6231.71,4115.49,7838.04,7123.19,12276.65,7330.52
1876386,10922.63,8972.26,10975.02,3888.71,26126.6,4816.13,12890.16,2508.98,11981.56,11320.89,12901.07,10370.14,-1245.57,19959.53,-387.85,4841.92,4060.1,9259.48,8962.38,9239.05,7562.0,7547.29,2200.17,22792.97,9946.62,5538.27,6213.65,4073.43,7819.71,7118.67,12282.46,7347.87
1876387,10933.13,8983.93,10981.41,3895.6,26131.02,4819.3,12896.24,2521.14,11989.48,11329.92,12902.41,10372.33,-1236.1,19967.98,-388.74,4841.12,4061.31,9265.83,8954.69,9230.38,7558.96,7545.1,2209.07,22802.8,9934.1,5529.55,6204.13,4079.69,7818.33,7088.23,12264.89,7334.32
1876388,10937.51,8988.44,10984.68,3898.37,26135.0,4822.84,12899.68,2528.47,11993.54,11332.16,12906.3,10376.48,-1227.16,19972.36,-390.13,4844.7,4064.93,9274.36,8931.76,9230.33,7562.89,7548.32,2214.21,22807.18,9949.88,5533.31,6207.57,4083.35,7820.7,7082.69,12256.71,7304.86
1876389,10937.51,8990.9,10988.79,3900.92,26140.68,4828.25,12904.65,2532.36,11998.24,11341.63,12912.38,10380.6,-1220.81,19972.71,-392.99,4852.38,4069.05,9280.71,8926.3,9237.22,7571.56,7552.48,2215.1,22806.51,9977.73,5543.5,6212.58,4082.86,7809.83,7099.05,12268.29,7317.78
1876390,10937.74,8989.83,10990.49,3901.01,26142.91,4833.7,12905.45,2529.46,11999.49,11346.64,12918.32,10388.11,-1218.57,19979.02,-376.85,4859.4,4076.69,9289.3,8967.56,9247.54,7578.0,7559.85,2227.26,22838.03,9970.84,5545.29,6211.1,4091.67,7821.32,7076.74,12254.57,7301.11
1876391,10942.88,8995.24,11000.14,3913.21,26157.22,4848.0,12917.34,2538.49,12015.45,11360.63,12934.69,10404.65,-1204.09,20007.76,-330.45,4879.7,4095.55,9308.74,9012.72,9280.71,7600.53,7579.16,2250.51,22902.8,10010.72,5570.86,6234.08,4121.8,7811.8,7077.05,12251.13,7260.03
1876392,10942.07,8992.46,11002.38,3913.75,26167.9,4853.86,12922.26,2542.91,12019.02,11370.06,12941.84,10406.57,-1198.95,20024.66,-314.35,4891.68,4098.37,9314.51,9012.36,9319.29,7615.73,7583.99,2256.1,22921.22,10076.12,5592.45,6246.87,4127.07,7796.11,7131.91,12292.3,7309.6
1876393,10916.23,8958.85,10974.53,3882.9,26149.8,4826.1,12890.43,2504.47,11981.52,11337.16,12910.1,10377.33,-1238.82,19974.19,-379.35,4857.17,4066.36,9271.01,8920.31,9276.24,7577.51,7549.53,2204.15,22823.1,10008.71,5552.44,6205.02,4065.51,7784.0,7056.0,12235.03,7294.8
1876394,10937.33,8979.37,10993.44,3903.51,26164.77,4839.51,12909.29,2525.7,11996.09,11347.76,12921.5,10394.46,-1217.54,19959.26,-367.33,4862.22,4083.57,9290.19,8922.55,9256.35,7577.42,7565.08,2225.07,22805.13,9962.89,5546.63,6220.36,4094.12,7807.69,7088.59,12248.53,7314.34
1876395,10952.71,8993.85,11004.52,3917.19,26166.25,4845.01,12920.34,2544.75,12007.45,11354.02,12926.37,10399.19,-1202.52,19936.37,-359.73,4868.12,4087.64,9295.24,8965.55,9262.21,7586.58,7568.03,2231.55,22842.01,9980.59,5563.13,6227.29,4103.74,7820.92,7084.12,12264.63,7321.36
1876396,10955.8,8999.62,11004.26,3915.49,26161.64,4842.68,12917.92,2546.44,12008.88,11359.07,12924.63,10393.78,-1207.49,19953.58,-344.08,4868.61,4082.81,9285.9,9000.6,9266.45,7588.1,7563.16,2224.76,22880.77,9992.03,5566.7,6223.58,4094.97,7798.43,7070.57,12276.16,7338.93
1876397,10948.42,8994.92,10996.21,3907.13,26157.84,4833.65,12910.14,2533.48,12000.7,11345.03,12914.08,10385.6,-1223.98,19971.86,-378.28,4855.42,4076.24,9276.33,8987.99,9248.62,7570.22,7555.11,2217.02,22826.76,9959.27,5536.44,6212.62,4089.97,7800.27,7100.48,12264.49,7313.36
1876398,10932.51,8978.83,10980.47,3892.74,26135.76,4817.61,12896.11,2518.15,11980.0,11313.87,12898.21,10372.01,-1241.95,19950.63,-414.89,4839.38,4062.79,9256.84,8945.08,9236.55,7561.33,7544.07,2192.39,22754.17,9964.09,5537.24,6207.62,4063.59,7799.46,7097.62,12264.45,7322.48
1876399,10922.76,8967.7,10974.13,3886.66,26138.31,4816.53,12891.46,2510.28,11976.06,11317.63,12900.62,10371.97,-1242.8,19953.45,-394.42,4845.86,4065.6,9260.37,8954.29,9270.88,7574.02,7548.72,2196.64,22788.68,9996.86,5556.69,6210.03,4064.04,7795.66,7069.86,12247.82,7317.2
1876400,10921.11,8964.03,10976.45,3889.38,26149.26,4822.52,12896.15,2511.8,11974.54,11330.9,12907.95,10380.51,-1231.76,19969.72,-364.24,4856.77,4075.8,9276.15,8952.14,9288.85,7582.92,7560.79,2214.3,22813.67,10010.72,5561.52,6224.69,4084.6,7801.97,7113.49,12265.88,7321.9
1876401,10915.92,8955.81,10972.74,3888.71,26146.27,4822.12,12893.56,2508.45,11964.62,11330.28,12907.15,10384.67,-1227.56,19985.77,-366.12,4857.26,4080.13,9283.62,8928.45,9259.48,7581.71,7566.96,2222.61,22815.41,9995.21,5559.55,6228.94,4090.55,7818.37,7121.27,12256.8,7308.71
1876402,10919.86,8962.11,10976.45,3892.38,26147.47,4826.9,12897.05,2510.46,11966.14,11339.8,12914.03,10385.11,-1231.94,19950.76,-342.92,4867.36,4079.6,9274.81,8952.59,9276.64,7593.74,7567.76,2218.81,22820.01,10033.43,5576.67,6232.02,4090.32,7806.08,7093.91,12255.64,7320.73
1876403,10935.77,8983.34,10990.22,3906.73,26156.82,4837.32,12909.34,2525.84,11984.33,11349.68,12926.82,10393.83,-1223.18,19943.39,-343.95,4881.76,4088.18,9281.25,9002.75,9326.8,7611.84,7573.84,2221.09,22869.01,10065.48,5589.32,6230.19,4083.84,7798.08,7055.15,12239.1,7286.58
1876404,10922.14,8967.12,10972.83,3889.11,26123.78,4814.07,12892.71,2513.54,11969.72,11313.56,12900.44,10369.82,-1237.84,19946.83,-405.64,4846.04,4063.86,9265.78,8947.09,9279.24,7574.29,7550.42,2209.07,22835.62,10031.95,5553.87,6218.3,4080.98,7794.46,7065.43,12274.59,7297.62
1876405,10942.92,8983.88,10990.31,3905.07,26137.86,4829.23,12909.61,2529.41,11997.03,11328.67,12911.26,10386.14,-1220.23,19986.84,-394.24,4850.86,4078.66,9284.2,8987.68,9253.94,7572.59,7564.41,2223.82,22833.92,9947.33,5550.12,6227.87,4089.83,7807.96,7127.48,12294.0,7335.8
1876406,10959.69,9003.19,11008.99,3922.33,26163.61,4850.06,12928.83,2547.7,12014.42,11355.09,12931.38,10406.57,-1201.5,20000.65,-372.07,4871.16,4100.92,9301.1,9043.43,9262.07,7594.59,7585.47,2245.95,22865.75,9961.32,5572.42,6247.98,4118.44,7824.36,7137.09,12289.79,7328.2
1876407,10946.01,8990.81,10998.35,3909.14,26160.53,4843.71,12918.82,2532.1,11995.96,11348.11,12924.49,10399.69,-1213.66,19979.78,-383.65,4863.65,4093.99,9289.97,9012.36,9243.7,7584.53,7579.03,2236.02,22869.5,9953.72,5558.7,6239.71,4110.17,7820.74,7114.29,12282.33,7329.0
1876408,10938.94,8983.66,10996.03,3905.25,26164.24,4845.46,12916.89,2526.95,11993.54,11350.8,12927.18,10400.49,-1216.56,19990.15,-377.48,4867.23,4095.55,9291.31,8996.85,9251.48,7588.77,7580.73,2229.85,22847.77,9952.02,5564.42,6244.32,4096.36,7790.57,7126.59,12289.93,7332.94
1876409,10938.68,8980.13,10999.79,3909.05,26176.35,4852.7,12920.78,2529.32,12011.29,11359.25,12935.85,10410.15,-1208.92,20012.86,-359.42,4877.73,4105.08,9306.73,8973.06,9276.11,7601.38,7589.8,2245.37,22857.48,9979.7,5576.4,6248.61,4107.85,7804.07,7100.57,12271.33,7314.3
1876410,10928.97,8968.06,10990.49,3903.51,26164.73,4842.91,12911.35,2523.56,11996.27,11344.76,12924.18,10401.92,-1209.86,20009.51,-370.86,4864.95,4095.11,9306.15,8966.58,9261.18,7584.84,7578.76,2248.27,22884.52,9974.33,5551.68,6231.8,4116.34,7816.32,7061.18,12238.92,7300.21
1876411,10939.7,8982.0,10999.34,3914.86,26161.11,4847.91,12921.95,2540.54,12012.63,11342.66,12927.58,10402.77,-1197.7,20005.53,-364.74,4868.61,4095.47,9305.93,8991.93,9264.66,7591.81,7580.73,2246.57,22880.94,10011.84,5573.14,6245.44,4123.49,7794.23,7096.5,12275.49,7337.0
1876412,10928.8,8970.2,10982.84,3892.51,26139.61,4827.71,12902.54,2522.48,11993.36,11323.13,12907.95,10376.08,-1228.72,19957.6,-377.34,4850.28,4068.2,9267.39,8901.4,9265.65,7576.17,7555.92,2215.82,22787.07,10001.51,5563.39,6228.31,4098.33,7802.19,7080.81,12288.05,7365.93
1876413,10927.05,8968.24,10975.6,3884.69,26138.31,4818.28,12891.82,2510.01,11983.13,11319.77,12897.31,10367.72,-1243.07,19946.52,-387.09,4837.14,4057.15,9257.73,8873.6,9250.81,7557.8,7541.39,2195.97,22739.59,9936.02,5528.17,6202.12,4065.65,7789.72,7038.7,12244.96,7305.35
1876414,10938.5,8982.9,10986.69,3899.04,26141.44,4827.08,12905.14,2523.42,11998.64,11332.74,12905.49,10381.54,-1229.12,19977.41,-380.47,4847.91,4072.53,9274.86,8955.85,9253.31,7571.92,7556.19,2211.53,22778.26,9970.53,5543.28,6219.37,4081.61,7797.81,7067.0,12258.41,7310.27
1876415,10923.12,8968.19,10976.0,3886.92,26132.68,4820.11,12896.06,2512.16,11984.33,11334.97,12901.29,10374.03,-1239.72,19963.59,-386.86,4847.38,4065.83,9263.73,8961.44,9238.69,7574.96,7552.97,2206.52,22805.75,10021.81,5551.41,6221.79,4083.93,7797.45,7077.95,12266.68,7322.12
1876416,10936.08,8982.63,10992.19,3906.5,26156.01,4839.24,12915.02,2528.47,12005.03,11351.74,12922.62,10398.21,-1217.1,19994.13,-367.51,4868.39,4091.44,9291.53,8972.84,9235.07,7593.38,7578.63,2237.05,22857.56,9963.25,5570.46,6244.23,4111.96,7819.89,7072.58,12264.27,7313.98
1876417,10930.27,8977.44,10989.73,3904.67,26159.1,4839.47,12914.44,2524.58,12004.94,11351.78,12923.69,10399.77,-1217.99,20001.86,-349.0,4868.17,4093.23,9293.77,8960.19,9240.79,7590.34,7581.4,2239.29,22849.29,9960.07,5569.34,6246.33,4115.22,7826.87,7102.89,12264.45,7328.2
1876418,10931.21,8972.44,10991.87,3903.87,26170.45,4846.84,12913.72,2518.73,12003.15,11366.85,12935.09,10405.54,-1221.66,19999.54,-316.46,4884.84,4100.56,9293.01,9003.86,9290.01,7606.43,7590.83,2245.01,22844.96,9980.28,5585.88,6252.9,4125.95,7823.16,7086.75,12251.53,7298.34
1876419,10922.0,8963.5,10979.31,3891.84,26142.51,4827.04,12899.68,2508.89,11983.13,11326.43,12910.55,10383.91,-1235.65,19970.34,-401.71,4854.93,4078.34,9271.46,8962.16,9271.1,7581.4,7568.79,2218.1,22815.32,9977.19,5566.97,6241.9,4095.64,7815.29,7098.74,12276.2,7321.76
1876420,10938.0,8982.05,10991.34,3904.13,26146.4,4833.61,12910.73,2524.23,11989.52,11334.3,12914.44,10387.75,-1224.52,19954.88,-400.99,4854.31,4082.14,9276.78,8950.89,9266.59,7576.7,7568.79,2220.47,22802.89,9973.39,5552.75,6240.79,4097.48,7826.2,7128.46,12297.3,7361.14
1876421,10944.93,8989.6,10996.75,3909.36,26155.39,4838.8,12916.22,2535.98,11995.82,11350.8,12919.89,10390.97,-1215.31,19939.37,-390.57,4858.73,4084.92,9279.01,8974.09,9247.1,7577.96,7570.71,2224.36,22814.34,9958.33,5549.31,6239.44,4102.08,7826.2,7105.08,12305.93,7375.54
1876422,10927.28,8972.26,10980.07,3891.84,26136.03,4822.88,12901.47,2517.97,11979.15,11336.09,12908.94,10380.19,-1231.67,19937.58,-391.33,4854.26,4077.23,9265.29,8961.08,9241.51,7577.29,7563.43,2211.66,22801.28,9967.98,5551.41,6228.22,4086.88,7823.38,7067.22,12266.37,7324.62
1876423,10919.99,8966.13,10973.28,3887.82,26127.36,4817.96,12896.73,2510.46,11981.38,11322.63,12904.11,10378.81,-1236.14,19972.04,-391.07,4849.7,4076.91,9271.55,8969.8,9258.05,7575.41,7564.37,2218.5,22830.03,9966.42,5549.89,6226.66,4090.86,7830.08,7060.38,12249.78,7291.63
1876424,10917.53,8962.74,10974.66,3889.07,26125.75,4822.75,12899.24,2512.07,11983.98,11317.63,12907.73,10381.49,-1232.43,19980.4,-371.89,4854.4,4078.79,9276.24,8967.7,9268.2,7577.82,7567.63,2224.04,22833.65,9957.43,5552.53,6237.3,4102.75,7815.78,7102.62,12279.56,7326.72
1876425,10921.02,8964.3,10982.57,3894.88,26143.14,4834.59,12907.28,2514.08,11988.05,11328.22,12921.36,10392.04,-1227.11,19983.0,-352.35,4871.16,4090.59,9282.41,8953.35,9255.37,7594.81,7579.57,2231.55,22808.26,9948.98,5571.93,6247.63,4109.5,7832.68,7110.05,12286.35,7345.68
1876426,10915.07,8953.93,10976.99,3892.78,26143.23,4831.02,12901.52,2507.37,11986.61,11315.17,12916.67,10390.74,-1230.37,19985.05,-382.75,4864.05,4088.63,9281.87,8954.02,9225.91,7587.93,7577.2,2228.51,22818.67,9969.73,5564.74,6243.2,4103.82,7833.08,7094.18,12260.47,7320.69
1876427,10920.35,8955.36,10981.37,3898.73,26150.74,4834.95,12905.76,2515.15,11989.34,11325.99,12920.34,10391.68,-1223.62,19974.37,-386.95,4867.9,4089.34,9287.19,8936.5,9231.32,7592.31,7578.4,2232.49,22823.95,9970.76,5565.27,6246.64,4109.01,7832.23,7105.8,12269.99,7310.0
1876428,10935.99,8973.29,10993.3,3911.91,26156.28,4841.07,12916.89,2537.06,12005.35,11348.56,12925.12,10394.68,-1208.07,19959.79,-377.83,4873.4,4091.31,9295.78,8945.08,9246.16,7597.0,7579.25,2241.92,22849.56,9971.69,5571.8,6249.95,4121.97,7830.4,7127.7,12293.33,7331.42
1876429,10936.22,8974.72,10989.41,3906.77,26147.79,4831.69,12911.22,2536.07,11999.27,11344.0,12913.59,10381.54,-1218.26,19963.01,-365.18,4859.67,4077.81,9279.59,8965.24,9272.53,7583.99,7563.83,2225.25,22846.25,9992.57,5563.8,6238.42,4106.95,7818.46,7116.08,12295.2,7349.57
1876430,10933.04,8970.92,10984.81,3903.11,26143.0,4825.07,12906.79,2528.16,11985.18,11330.9,12904.38,10378.09,-1223.27,19979.38,-378.68,4849.17,4073.96,9276.06,8976.01,9278.16,7574.43,7559.45,2218.1,22828.78,9971.74,5553.51,6228.13,4091.4,7807.73,7090.6,12277.41,7335.98
1876431,10920.93,8961.44,10975.42,3899.4,26133.08,4815.82,12900.67,2522.53,11974.72,11318.39,12894.86,10375.19,-1223.13,19974.32,-392.63,4840.09,4072.85,9279.01,8989.65,9262.83,7566.91,7557.53,2220.78,22837.09,9947.24,5544.62,6223.31,4095.64,7807.29,7063.96,12256.98,7303.92
1876432,10917.58,8955.27,10973.54,3897.74,26131.69,4817.2,12900.98,2516.72,11975.39,11320.31,12898.61,10378.23,-1223.62,19967.17,-387.22,4844.83,4076.33,9283.57,8956.84,9266.5,7575.5,7563.74,2226.41,22827.97,9971.96,5558.79,6233.28,4104.41,7809.61,7080.72,12259.44,7307.5
1876433,10918.29,8954.78,10976.09,3899.53,26142.06,4822.79,12904.24,2515.64,11982.77,11335.2,12906.52,10385.47,-1220.45,19989.52,-368.4,4856.99,4084.83,9294.35,8962.42,9290.73,7589.36,7572.91,2237.45,22843.53,10021.09,5570.9,6239.89,4111.2,7810.28,7076.7,12248.31,7309.65
1876434,10911.9,8947.54,10973.77,3891.98,26144.7,4824.89,12903.71,2510.46,11982.23,11340.65,12909.38,10386.05,-1221.66,20000.7,-358.03,4862.98,4085.72,9299.0,8925.19,9312.9,7595.17,7576.35,2246.31,22842.72,10054.08,5578.5,6250.04,4129.66,7807.11,7079.51,12267.53,7329.72
1876435,10927.5,8963.9,10988.79,3910.84,26161.29,4840.76,12919.26,2531.29,12012.05,11349.77,12924.81,10404.25,-1197.74,20039.23,-349.09,4878.0,4103.69,9323.67,8986.47,9313.57,7611.22,7593.38,2262.85,22913.58,10015.32,5597.23,6258.8,4130.16,7799.64,7070.35,12263.46,7325.74
1876436,10949.4,8992.06,11010.02,3936.54,26173.36,4857.21,12941.48,2563.57,12041.69,11362.87,12939.92,10419.31,-1170.38,20063.69,-324.9,4891.01,4118.8,9346.2,9131.0,9328.05,7619.84,7606.66,2293.2,23046.03,10035.44,5602.38,6276.95,4170.97,7789.31,7099.76,12289.35,7314.83
1876437,10935.28,8975.97,10990.13,3907.22,26146.89,4833.39,12916.04,2531.6,11996.27,11337.88,12915.28,10386.77,-1216.87,19979.6,-361.83,4864.68,4086.03,9283.98,9047.85,9298.91,7595.79,7574.16,2242.51,22906.87,10050.82,5579.35,6247.58,4136.77,7803.49,7074.37,12280.99,7310.76
1876438,10933.27,8973.82,10983.65,3897.97,26137.5,4824.98,12906.66,2522.57,11987.15,11325.63,12903.75,10375.32,-1228.36,19961.4,-397.24,4848.72,4074.14,9269.4,8961.4,9254.11,7581.13,7561.91,2219.35,22784.07,9983.05,5572.56,6237.43,4103.74,7802.19,7086.13,12287.02,7342.73
1876439,10919.99,8964.97,10971.09,3889.2,26129.59,4812.2,12895.12,2514.97,11989.52,11319.28,12891.64,10365.35,-1230.28,19979.29,-403.72,4834.95,4063.95,9276.11,8893.31,9241.51,7563.52,7550.33,2221.9,22804.1,9940.71,5546.05,6216.29,4097.16,7800.89,7070.75,12251.75,7312.19
1876440,10912.84,8957.33,10966.79,3887.55,26127.04,4813.76,12893.29,2512.25,11988.89,11319.46,12894.77,10367.9,-1229.75,19987.51,-393.93,4839.33,4067.17,9277.63,8885.62,9250.58,7569.15,7555.52,2217.2,22777.1,9949.61,5551.64,6225.9,4092.56,7802.5,7084.52,12257.12,7309.83
1876441,10911.14,8954.11,10968.9,3886.39,26129.86,4820.47,12895.12,2506.03,11977.27,11324.2,12901.25,10371.25,-1236.68,19972.4,-388.61,4845.72,4071.06,9270.88,8889.42,9239.09,7576.17,7561.64,2211.62,22773.79,9958.51,5566.08,6236.67,4091.44,7831.51,7082.91,12281.08,7351.44
1876442,10897.64,8936.59,10959.19,3873.56,26127.8,4814.74,12884.35,2487.62,11960.69,11320.18,12896.87,10364.86,-1252.01,19961.58,-374.03,4845.55,4064.4,9257.69,8897.42,9242.49,7573.98,7555.65,2201.83,22775.35,9970.76,5559.59,6227.82,4085.32,7819.58,7087.47,12266.91,7347.2
1876443,10897.28,8927.24,10957.99,3872.48,26134.91,4815.19,12880.91,2481.22,11950.32,11315.93,12895.75,10365.13,-1256.3,19953.13,-395.0,4841.79,4063.5,9255.14,8909.81,9227.52,7569.73,7555.78,2200.98,22764.36,9949.39,5552.8,6226.88,4085.05,7826.33,7100.39,12254.08,7324.76
1876444,10899.29,8927.64,10957.32,3873.38,26132.68,4809.25,12878.67,2484.22,11952.82,11306.0,12886.85,10359.41,-1254.87,19932.48,-419.81,4828.25,4057.87,9252.28,8910.08,9223.49,7555.43,7546.8,2196.68,22769.14,9924.13,5535.99,6216.82,4078.12,7820.34,7094.67,12247.91,7305.04
1876445,10913.69,8943.34,10970.95,3885.54,26128.47,4819.39,12893.11,2507.55,11976.56,11316.15,12899.82,10366.43,-1236.19,19923.9,-383.73,4846.48,4067.26,9263.14,8942.31,9273.65,7580.15,7557.62,2212.69,22791.05,10004.01,5572.2,6239.22,4105.7,7823.47,7129.58,12299.09,7348.94
1876446,10931.25,8960.19,10984.27,3893.05,26141.21,4830.61,12902.95,2516.54,11983.26,11337.43,12913.41,10374.7,-1232.65,19942.36,-357.27,4862.85,4074.72,9265.78,8981.65,9276.15,7598.97,7564.99,2211.75,22806.83,10000.93,5595.89,6240.52,4092.69,7823.07,7119.97,12303.38,7360.83
1876447,10936.62,8972.12,10988.25,3901.41,26148.05,4833.07,12908.94,2521.95,11988.58,11345.48,12913.85,10381.18,-1227.83,19979.02,-363.62,4861.91,4080.36,9277.58,9006.37,9258.67,7590.7,7566.2,2219.26,22845.72,9963.47,5573.68,6236.4,4094.79,7823.02,7120.33,12276.79,7326.19
1876448,10931.17,8971.68,10983.6,3902.12,26149.8,4828.25,12906.52,2522.13,11980.85,11336.98,12907.73,10380.37,-1224.83,19987.33,-379.31,4854.71,4078.93,9281.87,8999.62,9252.1,7583.32,7563.88,2223.73,22855.24,9953.81,5559.68,6230.46,4101.37,7828.07,7110.45,12262.52,7313.18
1876449,10919.86,8961.22,10973.1,3891.35,26144.88,4818.81,12894.99,2510.1,11972.44,11328.53,12895.44,10369.33,-1235.74,19977.18,-386.86,4838.62,4065.92,9270.56,8973.15,9233.33,7559.76,7550.55,2213.18,22835.84,9933.65,5534.38,6217.41,4095.69,7830.4,7057.56,12258.86,7319.7
1876450,10909.13,8951.25,10966.39,3883.35,26138.09,4814.43,12891.19,2500.89,11960.06,11322.41,12893.07,10368.57,-1241.59,19964.18,-371.8,4841.3,4066.86,9266.09,8967.97,9243.88,7565.98,7552.34,2208.13,22820.51,9942.41,5545.15,6219.02,4089.07,7835.45,7073.08,12256.4,7319.7
1876451,10907.96,8944.23,10967.69,3883.12,26147.43,4818.54,12891.64,2494.95,11961.09,11323.53,12898.7,10374.7,-1238.78,19968.29,-371.8,4849.12,4072.22,9272.4,8955.94,9257.47,7574.6,7557.66,2211.62,22824.39,9948.94,5551.1,6218.93,4090.32,7834.73,7063.33,12223.1,7276.7
1876452,10918.38,8955.58,10976.09,3893.18,26145.55,4824.94,12902.37,2509.39,11986.26,11325.67,12903.97,10376.89,-1229.97,19987.78,-394.37,4851.85,4073.87,9279.73,8944.68,9247.72,7577.96,7561.42,2220.87,22826.76,9967.72,5561.65,6235.64,4107.49,7830.75,7099.63,12283.58,7352.43
1876453,10927.72,8969.17,10980.65,3897.97,26144.21,4823.37,12903.8,2515.96,11991.13,11327.51,12902.81,10374.03,-1233.1,19977.01,-389.64,4851.67,4072.13,9270.07,8974.76,9254.52,7582.07,7556.19,2213.98,22832.71,9976.57,5563.89,6223.98,4097.03,7827.85,7066.1,12263.28,7339.11
1876454,10933.67,8975.34,10984.5,3900.6,26137.37,4823.33,12906.43,2525.88,11994.08,11328.13,12903.39,10373.36,-1226.31,19966.05,-368.45,4853.19,4072.31,9273.74,9005.7,9279.15,7586.67,7555.29,2220.02,22846.12,9994.22,5569.16,6222.68,4106.28,7827.58,7062.39,12265.74,7325.16
1876455,10918.96,8960.28,10968.18,3883.48,26123.65,4807.41,12891.32,2511.53,11983.08,11317.4,12889.94,10360.3,-1239.27,19962.57,-388.97,4841.83,4059.88,9266.18,8967.16,9278.34,7576.12,7541.61,2203.97,22833.92,9994.85,5554.72,6203.19,4078.43,7808.4,7031.05,12235.43,7287.61
1876456,10939.17,8983.17,10991.2,3909.14,26152.35,4831.24,12915.69,2537.55,12011.43,11343.33,12914.17,10386.5,-1210.03,20002.84,-371.31,4865.04,4087.78,9298.59,9006.68,9293.01,7596.33,7568.88,2237.68,22883.72,9997.09,5573.99,6228.49,4112.63,7810.24,7042.1,12249.34,7301.6
1876457,10935.86,8981.33,10990.71,3913.57,26154.8,4834.55,12916.8,2540.37,12018.26,11344.58,12917.74,10392.53,-1201.81,20019.03,-377.97,4867.94,4094.39,9310.53,9033.06,9259.7,7593.83,7578.05,2253.37,22942.77,9967.72,5569.65,6239.8,4131.54,7819.71,7079.74,12264.45,7308.08
1876458,10922.14,8965.64,10979.27,3901.68,26145.24,4826.19,12904.73,2522.8,12004.27,11338.1,12908.27,10381.85,-1219.33,20007.67,-378.86,4858.11,4083.98,9290.86,8991.12,9246.83,7583.54,7567.67,2228.33,22878.62,9965.44,5558.61,6231.17,4106.6,7804.42,7085.41,12258.28,7313.67
1876459,10908.46,8946.91,10967.73,3891.89,26134.82,4820.2,12895.48,2511.04,11994.26,11329.03,12904.02,10377.47,-1227.51,20011.43,-359.59,4856.63,4080.89,9285.99,8972.03,9247.68,7583.01,7566.65,2222.79,22855.15,9959.09,5560.04,6229.88,4100.83,7795.44,7084.79,12250.95,7295.21
1876460,10918.78,8954.24,10978.95,3904.0,26142.6,4831.33,12905.85,2520.83,12001.55,11327.01,12914.12,10390.39,-1216.11,20000.03,-365.32,4868.52,4094.12,9299.4,8979.28,9281.96,7600.35,7581.89,2242.01,22863.96,9992.26,5582.39,6246.78,4126.04,7841.13,7103.52,12259.98,7307.5
1876461,10910.91,8946.46,10968.94,3890.59,26132.72,4817.52,12892.8,2508.18,11982.37,11316.38,12899.64,10371.12,-1234.44,19961.18,-395.36,4852.38,4075.35,9272.98,8947.67,9282.46,7587.57,7562.89,2211.48,22810.22,9993.96,5573.36,6233.63,4094.12,7815.56,7098.65,12266.19,7308.04
1876462,10908.23,8943.34,10962.86,3880.26,26124.27,4807.82,12884.31,2503.62,11968.82,11318.7,12889.76,10354.58,-1245.04,19947.95,-381.59,4843.35,4059.26,9256.22,8915.66,9283.08,7578.4,7547.07,2195.3,22759.26,9992.66,5566.52,6223.66,4081.12,7802.37,7118.58,12288.45,7326.28
1876463,10928.93,8966.8,10981.81,3899.89,26135.81,4823.69,12903.84,2526.6,11989.39,11330.59,12902.54,10370.58,-1223.8,19969.09,-375.78,4853.77,4073.78,9277.14,8942.49,9278.97,7587.34,7561.19,2218.41,22784.38,10000.57,5575.82,6235.24,4102.44,7820.43,7126.36,12301.82,7358.82
1876464,10924.68,8966.89,10978.86,3901.01,26134.91,4819.39,12903.48,2523.47,11991.89,11322.32,12898.07,10372.77,-1223.36,19968.78,-384.54,4848.41,4076.33,9281.29,8958.62,9256.35,7579.83,7561.55,2223.73,22815.41,9967.13,5563.04,6226.79,4103.74,7831.43,7061.05,12256.85,7313.45
1876465,10920.79,8961.71,10976.54,3901.54,26129.1,4818.05,12903.3,2521.86,11987.87,11313.69,12895.3,10374.25,-1223.71,19966.99,-396.12,4845.37,4076.33,9282.59,8965.33,9256.39,7576.3,7561.95,2225.21,22823.99,9970.35,5558.3,6230.06,4106.95,7834.38,7079.83,12273.88,7322.25
1876466,10917.75,8956.12,10974.39,3901.23,26131.02,4817.07,12901.7,2515.87,11978.93,11306.0,12893.65,10376.08,-1227.65,19955.24,-404.07,4841.97,4076.33,9277.81,8965.69,9248.53,7571.07,7560.21,2216.89,22804.64,9942.46,5549.27,6223.08,4095.47,7822.93,7060.74,12249.56,7306.87
1876467,10912.12,8948.97,10971.4,3901.45,26132.59,4815.64,12902.41,2514.48,11977.32,11302.03,12892.44,10378.05,-1225.37,19957.74,-402.64,4841.07,4078.61,9282.86,8971.45,9244.01,7570.76,7563.88,2222.12,22821.22,9935.71,5552.8,6231.49,4105.12,7827.22,7073.25,12247.01,7315.86
1876468,10921.55,8952.95,10981.01,3910.97,26154.04,4829.45,12913.32,2525.93,11991.49,11323.3,12906.17,10391.5,-1210.12,19991.58,-389.77,4855.25,4091.93,9303.42,9002.39,9257.2,7586.81,7579.3,2247.51,22897.44,9962.31,5574.61,6247.36,4130.78,7820.34,7085.91,12267.4,7332.09
1876469,10935.55,8971.05,10993.75,3925.91,26159.81,4837.59,12925.61,2542.33,12016.66,11332.65,12914.12,10401.74,-1194.12,20034.32,-372.02,4863.43,4102.04,9321.84,9020.31,9273.56,7594.14,7586.58,2262.35,22934.05,9982.91,5576.72,6250.26,4139.95,7810.1,7072.05,12260.2,7295.12
1876470,10947.04,8985.31,11001.26,3929.3,26151.59,4838.3,12930.8,2550.47,12018.67,11338.19,12914.21,10396.06,-1192.06,20017.37,-350.3,4863.02,4095.42,9315.18,8968.91,9277.58,7591.28,7577.55,2249.66,22846.75,9986.76,5575.33,6246.69,4130.47,7794.59,7086.35,12280.63,7330.7
1876471,10954.05,8990.41,11005.24,3928.18,26157.26,4841.07,12932.72,2555.7,12018.4,11350.62,12917.25,10395.98,-1187.73,19983.98,-350.56,4867.36,4094.3,9315.13,8895.82,9282.05,7596.37,7576.26,2245.41,22827.34,9983.41,5580.74,6239.85,4117.55,7814.3,7067.04,12270.84,7342.68
1876472,10942.03,8981.82,10993.35,3918.75,26145.73,4828.38,12923.51,2548.5,12006.15,11329.43,12902.54,10387.39,-1196.22,19961.9,-393.12,4849.39,4085.23,9303.69,8886.07,9275.62,7582.29,7567.23,2235.0,22835.53,9988.23,5568.04,6229.7,4108.07,7818.28,7050.1,12255.73,7320.73
1876473,10925.4,8962.38,10979.31,3901.32,26131.38,4816.85,12909.52,2521.5,11980.36,11306.32,12889.85,10373.4,-1225.59,19940.26,-397.55,4837.59,4071.33,9271.91,8923.67,9267.61,7570.98,7553.59,2205.36,22803.25,9976.7,5557.05,6219.24,4083.26,7805.1,7043.88,12245.0,7311.66
1876474,10914.4,8948.3,10972.65,3890.37,26128.21,4815.59,12903.75,2505.32,11965.43,11301.76,12888.28,10370.09,-1237.79,19939.19,-401.26,4836.87,4069.05,9263.46,8955.14,9245.98,7569.82,7554.26,2204.95,22767.67,9927.12,5557.72,6225.09,4090.15,7816.14,7071.02,12265.7,7341.12
1876475,10906.85,8941.86,10967.29,3887.91,26126.86,4812.64,12898.7,2497.99,11967.62,11298.18,12885.42,10371.57,-1242.8,19968.02,-404.52,4833.07,4071.37,9265.74,8953.13,9234.8,7563.56,7556.23,2208.4,22790.24,9920.15,5548.24,6221.34,4087.73,7821.37,7074.15,12242.68,7307.86
1876476,10905.33,8935.11,10968.54,3885.45,26135.72,4816.98,12897.49,2489.72,11965.87,11307.39,12890.83,10374.74,-1252.59,19974.64,-391.47,4839.73,4075.17,9262.34,8967.07,9239.81,7569.78,7563.2,2212.33,22812.15,9937.9,5554.45,6231.04,4097.7,7830.4,7094.4,12253.36,7296.68
1876477,10921.69,8950.49,10983.29,3902.93,26149.93,4829.81,12911.62,2512.6,11986.03,11324.78,12902.81,10384.8,-1228.99,19992.47,-379.8,4850.06,4084.07,9282.46,8977.18,9246.38,7577.64,7571.88,2233.03,22833.2,9947.29,5560.85,6242.89,4121.84,7841.89,7099.99,12275.85,7339.78
1876478,10922.45,8954.02,10980.47,3899.49,26141.44,4823.19,12906.79,2516.54,11985.41,11324.02,12897.31,10373.22,-1229.75,19988.09,-384.76,4845.41,4073.56,9273.87,8987.82,9255.05,7575.32,7560.88,2221.27,22825.06,9959.85,5560.98,6233.99,4108.3,7825.17,7067.67,12262.93,7340.4
1876479,10935.59,8965.33,10988.03,3906.59,26145.15,4828.74,12911.89,2527.89,11990.33,11334.35,12902.95,10375.77,-1221.75,19987.69,-370.55,4852.61,4078.57,9279.24,8982.72,9265.16,7585.78,7565.13,2228.78,22825.91,9976.84,5571.04,6236.85,4117.01,7822.8,7057.21,12265.07,7328.91
1876480,10942.43,8968.91,10994.15,3913.84,26151.72,4835.71,12918.37,2536.3,11990.19,11341.59,12909.83,10380.87,-1213.43,19993.5,-355.66,4859.9,4083.84,9288.31,9002.52,9268.33,7590.92,7569.69,2234.33,22855.06,9962.89,5574.03,6241.41,4119.16,7823.65,7081.61,12278.04,7335.75
1876481,10933.62,8963.85,10988.25,3907.71,26151.05,4831.73,12913.68,2530.13,11989.52,11342.66,12907.42,10376.98,-1217.9,19991.58,-356.91,4858.64,4081.25,9286.88,8997.2,9259.48,7587.66,7566.69,2232.58,22878.26,9959.8,5567.51,6237.21,4114.55,7833.21,7083.89,12276.16,7342.46
1876482,10922.58,8957.6,10979.13,3899.4,26144.03,4825.47,12905.18,2519.31,11994.04,11332.51,12901.83,10374.61,-1226.17,19991.85,-370.1,4854.44,4080.89,9284.74,8990.5,9257.42,7584.8,7566.78,2234.15,22862.66,9952.47,5565.85,6236.85,4120.45,7821.59,7058.37,12251.57,7309.6
1876483,10917.44,8953.84,10976.67,3897.03,26144.34,4824.13,12902.14,2514.26,11991.4,11327.95,12900.67,10372.82,-1231.36,19986.84,-373.9,4853.37,4078.7,9280.09,8984.02,9265.25,7586.14,7566.42,2227.84,22846.34,9974.73,5570.86,6239.85,4111.42,7822.35,7074.06,12265.07,7328.2
1876484,10904.25,8938.46,10965.68,3885.09,26141.3,4815.42,12889.09,2497.85,11976.02,11318.43,12893.02,10363.12,-1246.51,19972.89,-386.64,4845.72,4070.07,9266.81,8961.4,9266.81,7578.49,7560.16,2213.54,22825.15,9961.32,5562.41,6235.24,4099.35,7820.16,7072.18,12265.83,7316.58
1876485,10902.51,8934.57,10960.58,3882.63,26142.2,4811.17,12881.58,2491.24,11973.74,11316.82,12889.04,10357.26,-1252.86,19973.88,-380.16,4841.3,4063.28,9259.57,8942.8,9251.97,7571.16,7553.28,2204.87,22796.59,9927.26,5549.89,6222.9,4088.49,7819.58,7067.67,12237.85,7302.94
1876486,10918.07,8953.71,10974.75,3900.92,26144.52,4821.76,12897.76,2516.0,11991.89,11327.19,12899.64,10367.32,-1231.31,19992.61,-375.33,4852.97,4073.74,9275.62,8969.67,9273.25,7585.78,7563.43,2219.66,22827.12,9954.17,5573.9,6238.86,4105.26,7814.53,7096.28,12268.02,7343.17
1876487,10927.9,8963.76,10980.29,3907.04,26140.63,4822.84,12903.53,2527.22,11998.33,11327.24,12899.68,10369.24,-1220.81,19992.34,-385.17,4852.7,4076.47,9285.81,8996.17,9286.7,7590.56,7563.88,2230.26,22887.07,9971.65,5577.92,6235.2,4110.49,7820.16,7061.81,12264.36,7321.9
1876488,10926.02,8960.86,10975.96,3899.75,26134.87,4816.94,12899.19,2522.08,11987.37,11326.39,12893.38,10360.39,-1230.51,19968.47,-381.14,4845.99,4067.26,9273.02,8955.9,9272.22,7584.44,7555.07,2219.71,22842.54,9995.61,5571.89,6232.2,4106.42,7823.96,7076.2,12280.36,7332.4
1876489,10914.13,8954.2,10963.93,3887.1,26119.13,4801.74,12886.81,2507.96,11972.44,11303.81,12877.64,10347.47,-1245.39,19966.14,-398.76,4829.27,4052.82,9255.68,8929.39,9253.13,7564.95,7538.08,2196.64,22775.94,9991.5,5546.05,6210.12,4081.29,7801.43,7045.67,12252.06,7317.83
1876490,10913.19,8952.1,10966.39,3889.02,26120.29,4807.32,12892.58,2511.58,11975.13,11301.09,12886.27,10355.74,-1236.77,19983.13,-384.85,4839.82,4060.82,9268.55,8975.21,9271.86,7578.0,7547.29,2207.59,22828.1,9998.78,5564.74,6218.3,4086.39,7779.93,7024.17,12248.35,7312.55
1876491,10929.51,8966.09,10985.26,3909.14,26146.8,4829.94,12913.45,2527.22,11999.13,11315.97,12909.12,10382.3,-1215.31,20016.39,-365.05,4860.57,4087.11,9295.38,8995.33,9273.2,7594.85,7573.4,2233.97,22863.64,9952.92,5577.74,6239.31,4109.86,7805.5,7041.2,12242.94,7298.65
1876492,10922.09,8957.77,10983.11,3905.83,26147.25,4830.57,12913.14,2520.87,11997.08,11320.44,12907.51,10384.08,-1219.15,20011.43,-363.57,4859.49,4089.52,9294.26,8973.15,9251.39,7590.16,7577.87,2239.15,22831.1,9933.43,5571.17,6252.5,4128.37,7832.54,7117.2,12273.75,7324.13
1876493,10921.69,8946.87,10982.22,3897.38,26158.87,4833.79,12908.62,2507.78,11982.9,11347.18,12913.72,10382.79,-1232.48,19982.86,-329.06,4870.0,4086.26,9282.81,8954.47,9257.47,7598.74,7575.81,2229.41,22832.8,9937.67,5578.5,6246.82,4114.46,7839.7,7106.07,12264.09,7327.3
1876494,10930.85,8956.48,10988.97,3905.25,26153.69,4835.35,12914.53,2519.27,11990.19,11337.83,12911.66,10382.34,-1223.8,19986.84,-377.57,4863.25,4085.54,9288.54,8949.55,9255.95,7595.75,7574.38,2235.58,22840.49,9949.34,5582.71,6252.14,4126.27,7838.71,7101.37,12278.17,7340.67
1876495,10933.98,8962.69,10987.13,3904.4,26142.78,4826.23,12910.68,2524.32,11991.26,11321.7,12898.66,10371.52,-1225.14,19980.49,-415.38,4843.85,4073.02,9280.94,8936.0,9250.54,7577.2,7559.18,2221.36,22798.02,9936.83,5561.83,6233.9,4107.22,7813.01,7085.55,12282.78,7348.23
1876496,10936.08,8964.35,10986.02,3902.84,26140.14,4824.09,12908.76,2526.02,11989.74,11324.87,12897.81,10368.57,-1225.23,19968.51,-424.33,4843.89,4069.94,9278.3,8958.49,9242.13,7575.14,7555.69,2221.72,22814.43,9926.68,5558.12,6227.73,4109.95,7811.98,7077.77,12273.52,7334.55
1876497,10918.87,8948.39,10970.86,3886.88,26128.43,4810.36,12894.1,2507.6,11972.76,11317.4,12887.39,10354.71,-1243.16,19939.23,-434.92,4835.44,4057.29,9256.13,8948.48,9215.31,7566.29,7543.09,2199.59,22790.91,9909.02,5546.0,6216.15,4089.03,7820.38,7054.48,12251.04,7303.43
1876498,10917.17,8944.63,10970.15,3885.54,26128.34,4810.45,12894.59,2508.04,11968.47,11316.73,12886.72,10354.27,-1242.62,19929.49,-404.48,4834.82,4056.53,9256.26,8937.88,9226.49,7566.56,7544.97,2204.06,22798.73,9914.38,5549.04,6222.9,4098.37,7830.26,7067.22,12278.89,7352.2
1876499,10909.98,8935.11,10966.03,3883.71,26137.28,4809.02,12890.39,2501.52,11968.38,11316.2,12885.29,10357.13,-1247.72,19952.24,-378.82,4835.93,4059.93,9260.24,8928.09,9261.89,7567.99,7547.25,2207.64,22803.34,9938.93,5547.97,6217.0,4093.9,7828.74,7036.02,12245.31,7311.21
1876500,10901.21,8924.29,10962.55,3881.56,26136.57,4811.48,12890.3,2496.56,11966.1,11322.41,12891.28,10360.97,-1249.19,19960.15,-368.22,4848.09,4064.71,9261.27,8922.73,9296.0,7586.72,7554.8,2206.92,22797.17,9993.51,5575.6,6229.61,4093.99,7824.18,7060.65,12252.33,7314.21
1876501,10899.02,8918.66,10960.76,3881.07,26128.03,4812.11,12888.64,2490.57,11965.69,11318.79,12892.58,10361.87,-1255.18,19961.23,-370.46,4849.26,4065.07,9257.56,8957.73,9289.38,7587.34,7556.05,2206.07,22809.55,10008.71,5578.01,6228.22,4094.93,7817.75,7058.77,12241.56,7306.47
1876502,10907.87,8929.39,10965.9,3890.46,26125.66,4813.18,12893.87,2500.36,11975.98,11308.24,12889.27,10364.19,-1246.69,19978.48,-387.98,4840.31,4066.86,9267.39,8977.76,9253.44,7574.78,7555.52,2217.2,22843.62,9964.23,5562.5,6226.66,4106.78,7832.68,7062.53,12248.17,7311.79
1876503,10919.5,8948.03,10974.21,3900.92,26131.16,4816.31,12900.35,2514.53,11983.26,11313.83,12890.56,10366.11,-1233.68,19968.29,-384.72,4841.7,4069.27,9274.19,8981.11,9261.13,7576.75,7553.82,2219.89,22871.82,9950.77,5563.13,6225.68,4106.64,7829.95,7045.49,12250.01,7295.83
1876504,10929.82,8962.96,10981.55,3908.92,26135.31,4818.95,12907.33,2531.16,11989.92,11319.64,12892.93,10366.34,-1219.51,19961.99,-386.42,4840.05,4069.14,9281.16,8939.54,9257.6,7575.68,7554.13,2224.76,22866.55,9956.67,5566.97,6233.59,4113.26,7821.59,7090.96,12289.57,7329.99
1876505,10928.35,8961.71,10977.43,3902.44,26130.58,4813.54,12904.69,2529.01,11983.35,11316.82,12886.5,10361.2,-1222.28,19979.69,-391.02,4833.48,4064.22,9282.14,8851.34,9242.4,7568.21,7550.51,2222.7,22790.6,9929.76,5561.07,6230.41,4109.9,7805.01,7119.08,12300.21,7359.09
1876506,10928.66,8963.23,10977.97,3905.43,26133.66,4814.7,12906.08,2526.86,11990.95,11313.83,12888.11,10365.85,-1223.4,20002.4,-391.6,4836.38,4069.54,9287.28,8896.22,9257.56,7572.32,7553.73,2222.12,22788.68,9933.88,5559.82,6224.42,4104.54,7807.06,7079.24,12262.57,7335.31
1876507,10926.38,8959.92,10976.32,3905.21,26142.15,4816.18,12902.68,2519.31,11992.65,11315.35,12890.74,10367.41,-1235.92,19982.86,-387.36,4838.93,4069.54,9271.01,8990.18,9258.14,7574.2,7553.59,2207.82,22815.05,9933.83,5558.16,6219.24,4090.64,7801.43,7052.42,12237.31,7298.92
1876508,10909.71,8943.87,10965.05,3893.63,26133.93,4809.2,12893.87,2504.69,11971.77,11307.52,12885.15,10359.01,-1251.34,19937.04,-383.73,4834.37,4061.94,9254.29,8982.0,9248.75,7569.69,7548.59,2201.83,22816.93,9933.29,5557.81,6224.78,4097.21,7813.1,7056.62,12259.89,7318.81
1876509,10904.75,8935.6,10962.82,3888.94,26139.29,4810.14,12890.61,2497.23,11961.63,11311.06,12887.43,10360.79,-1251.74,19957.16,-379.76,4839.64,4063.9,9260.15,8975.83,9259.25,7575.81,7551.63,2207.19,22837.85,9947.02,5564.11,6224.2,4096.14,7803.71,7064.54,12253.45,7313.27
1876510,10915.12,8944.45,10972.92,3899.84,26153.42,4821.41,12898.88,2503.08,11969.09,11321.56,12899.46,10373.36,-1238.91,20012.54,-364.69,4853.86,4076.87,9279.64,9016.2,9289.74,7593.92,7564.23,2224.62,22901.46,9977.1,5582.48,6231.44,4108.3,7817.7,7046.39,12241.38,7276.79
1876511,10915.07,8944.01,10971.44,3893.58,26146.13,4815.86,12895.48,2500.31,11969.63,11318.61,12892.75,10360.66,-1246.29,19990.1,-370.32,4844.34,4064.62,9265.33,8980.89,9294.57,7583.81,7551.49,2211.39,22857.92,9990.96,5570.46,6226.48,4105.97,7809.65,7068.74,12265.48,7311.88
1876512,10926.25,8956.3,10978.46,3899.75,26144.16,4816.31,12900.22,2512.51,11982.41,11319.55,12890.3,10358.65,-1242.13,19972.8,-383.82,4836.47,4061.22,9261.31,8953.8,9268.42,7572.59,7545.46,2207.28,22816.12,9956.27,5552.58,6219.37,4101.68,7806.75,7069.86,12266.5,7321.0
1876513,10929.6,8958.09,10979.58,3899.57,26142.11,4814.88,12900.04,2516.54,11982.73,11316.55,12888.02,10354.8,-1244.41,19959.62,-390.08,4831.02,4056.8,9252.86,8949.41,9247.1,7566.56,7539.78,2200.26,22774.55,9930.88,5545.65,6212.18,4097.97,7810.46,7051.26,12260.02,7319.44
1876514,10923.12,8955.85,10975.11,3897.61,26128.65,4810.68,12899.19,2517.43,11976.42,11308.11,12883.37,10351.18,-1245.31,19954.03,-394.96,4827.93,4053.98,9249.55,8969.98,9244.77,7564.63,7537.28,2194.36,22787.56,9943.67,5547.21,6212.53,4087.15,7812.11,7050.68,12261.85,7339.24
1876515,10921.51,8951.11,10975.29,3897.92,26137.33,4814.88,12900.71,2514.26,11977.18,11314.63,12887.75,10357.62,-1243.2,19964.13,-386.42,4834.55,4061.18,9259.34,8963.36,9251.57,7572.99,7545.68,2204.42,22802.22,9957.48,5556.51,6217.72,4096.67,7815.91,7059.98,12253.27,7330.21
1876516,10917.22,8947.94,10973.19,3900.2,26136.7,4814.39,12900.62,2514.03,11987.6,11314.81,12887.61,10360.88,-1239.4,19989.57,-366.21,4835.76,4065.2,9269.4,8966.76,9238.56,7572.19,7549.21,2211.88,22824.17,9931.19,5553.74,6220.31,4098.68,7815.02,7045.27,12249.78,7324.22
1876517,10924.01,8952.05,10983.47,3908.6,26154.49,4827.66,12911.08,2520.65,11997.66,11329.56,12902.59,10374.29,-1229.97,19999.0,-344.53,4853.28,4078.97,9281.7,8990.81,9260.86,7589.45,7564.81,2225.03,22852.51,9938.66,5572.11,6238.64,4114.82,7822.4,7070.04,12269.23,7341.79
1876518,10918.92,8941.23,10976.99,3904.22,26152.61,4822.7,12903.97,2510.19,11991.76,11313.92,12895.3,10371.39,-1239.72,19986.04,-398.62,4843.44,4075.21,9273.25,8980.08,9244.95,7581.85,7561.15,2216.98,22841.96,9932.31,5564.29,6231.58,4106.42,7828.74,7048.4,12248.53,7307.72
1876519,10918.96,8942.58,10975.11,3904.67,26143.32,4817.43,12903.8,2516.05,11991.49,11308.78,12888.6,10363.97,-1236.95,19987.33,-395.89,4834.41,4069.22,9269.85,8980.53,9239.05,7573.49,7555.92,2216.18,22851.84,9929.0,5562.63,6235.11,4111.29,7825.7,7072.14,12274.06,7313.85
1876520,10932.95,8959.74,10985.17,3913.39,26145.77,4822.21,12912.83,2531.92,11998.68,11321.34,12894.05,10365.49,-1224.97,19996.5,-382.71,4840.49,4070.25,9279.68,8981.11,9262.07,7579.39,7554.98,2220.69,22849.74,9946.62,5568.27,6231.62,4113.21,7811.8,7073.84,12280.85,7344.11
1876521,10939.39,8966.22,10988.61,3913.61,26144.12,4822.75,12914.61,2534.46,11996.36,11325.81,12895.08,10364.77,-1225.5,19986.84,-382.89,4842.77,4070.34,9279.55,8981.29,9267.21,7583.99,7553.55,2223.02,22866.64,9961.32,5573.9,6229.48,4115.58,7815.2,7048.67,12273.16,7344.96
1876522,10935.55,8966.18,10987.45,3912.63,26144.16,4823.51,12916.8,2535.31,11997.66,11329.92,12896.64,10367.01,-1223.31,19986.04,-370.32,4845.14,4073.43,9281.7,8986.52,9262.61,7585.33,7556.86,2227.62,22855.02,9942.77,5572.56,6233.81,4123.58,7817.21,7064.98,12279.91,7341.74
1876523,10922.49,8953.26,10977.12,3902.84,26138.76,4816.18,12906.48,2523.02,11992.78,11315.53,12888.95,10362.31,-1230.69,19986.39,-397.73,4837.28,4068.73,9277.94,8982.58,9255.01,7578.49,7551.05,2222.3,22845.0,9934.01,5563.3,6220.98,4111.96,7821.23,7035.7,12244.69,7296.01
1876524,10900.99,8928.49,10957.23,3882.72,26118.68,4799.01,12887.03,2501.43,11970.57,11292.06,12872.06,10345.1,-1249.82,19968.42,-409.22,4820.51,4051.57,9261.4,8950.53,9240.48,7562.76,7536.02,2205.85,22825.02,9925.02,5546.72,6208.47,4097.03,7816.09,7030.92,12244.69,7290.47
1876525,10902.78,8930.06,10962.01,3887.86,26127.36,4805.49,12892.62,2501.74,11971.5,11300.33,12881.27,10353.06,-1245.66,19977.59,-398.58,4834.1,4061.67,9267.08,8911.46,9269.85,7580.95,7549.26,2211.71,22784.56,9964.36,5571.84,6226.84,4106.37,7832.19,7061.81,12260.24,7323.37
1876526,10898.62,8921.74,10958.97,3884.46,26134.82,4805.58,12887.84,2494.54,11968.47,11309.22,12882.25,10353.55,-1246.96,19981.25,-394.91,4838.26,4063.73,9268.37,8908.78,9280.53,7585.6,7553.33,2213.72,22798.91,9999.01,5578.24,6231.35,4107.49,7830.84,7082.19,12267.04,7331.19
1876527,10905.24,8926.84,10962.73,3887.5,26141.66,4807.5,12888.33,2494.5,11970.52,11318.97,12882.61,10353.91,-1249.19,19969.9,-392.41,4837.32,4062.16,9264.71,8947.72,9256.39,7580.06,7548.94,2211.08,22828.64,9953.05,5566.12,6221.65,4102.17,7831.78,7044.47,12235.84,7292.79
1876528,10921.11,8946.24,10976.99,3899.93,26143.72,4815.64,12900.62,2513.72,11983.57,11323.8,12888.15,10358.07,-1234.13,19977.77,-385.88,4839.29,4064.35,9275.39,8975.03,9256.8,7579.39,7549.03,2223.95,22850.14,9919.53,5565.05,6223.84,4120.63,7830.22,7035.7,12246.43,7309.83
1876529,10949.27,8978.65,11000.55,3923.45,26157.08,4835.17,12922.84,2543.23,12011.34,11341.32,12905.09,10373.31,-1209.27,20005.3,-376.05,4854.66,4077.41,9291.75,9002.84,9266.72,7590.7,7558.73,2234.1,22859.31,9929.67,5569.88,6235.6,4130.87,7800.31,7075.44,12275.49,7334.86
1876530,10957.72,8986.88,11007.74,3930.46,26159.14,4843.09,12932.23,2555.43,12018.94,11347.35,12912.83,10378.85,-1199.31,19989.25,-372.69,4863.65,4082.46,9298.06,9000.96,9236.86,7603.53,7564.81,2235.31,22866.55,9979.96,5594.69,6243.02,4126.76,7779.3,7068.25,12297.93,7371.29
1876531,10929.2,8958.45,10981.28,3906.91,26138.58,4818.95,12908.13,2532.81,11991.4,11325.99,12889.63,10358.87,-1215.13,19945.76,-373.36,4840.49,4062.79,9280.8,8901.49,9204.76,7574.74,7543.4,2212.91,22831.5,9903.79,5551.19,6213.83,4099.53,7799.1,7014.56,12247.1,7322.7
1876532,10921.06,8944.99,10975.82,3900.51,26139.52,4817.74,12903.57,2520.74,11971.77,11326.93,12889.89,10359.45,-1223.8,19960.06,-393.84,4842.55,4063.95,9276.24,8895.55,9229.12,7574.25,7545.77,2210.19,22778.57,9865.88,5545.87,6216.91,4100.03,7798.26,7023.99,12243.39,7311.08
1876533,10919.54,8940.52,10976.36,3899.62,26141.35,4818.28,12905.18,2509.48,11966.63,11310.12,12889.94,10365.09,-1237.21,19990.01,-419.36,4840.05,4071.1,9275.35,8969.13,9231.9,7576.35,7555.02,2220.69,22779.69,9907.54,5553.56,6230.01,4116.57,7827.8,7067.53,12256.22,7321.09
1876534,10905.01,8919.11,10962.55,3885.45,26133.39,4805.8,12890.39,2487.48,11959.03,11293.8,12878.14,10354.49,-1257.46,19985.32,-396.61,4829.85,4061.76,9257.56,8970.02,9254.83,7569.24,7546.26,2205.18,22799.23,9938.43,5550.43,6221.74,4102.39,7832.63,7047.06,12239.9,7309.96
1876535,10914.76,8922.77,10972.83,3894.57,26142.42,4818.77,12899.15,2497.49,11969.4,11306.99,12892.4,10362.76,-1248.48,19987.56,-368.45,4847.83,4071.64,9263.5,8979.95,9269.31,7588.82,7558.82,2212.42,22824.22,9969.82,5577.52,6240.83,4112.86,7831.96,7086.89,12278.22,7345.19
1876536,10919.68,8931.8,10974.89,3895.77,26139.34,4816.26,12897.67,2502.55,11973.92,11303.19,12888.69,10357.31,-1247.18,19973.97,-383.73,4841.83,4065.92,9261.31,8965.02,9244.5,7579.83,7550.91,2207.82,22802.8,9925.25,5562.19,6226.61,4104.18,7831.83,7062.48,12261.85,7318.77
1876537,10923.97,8942.98,10975.65,3898.81,26125.7,4812.73,12897.54,2512.38,11979.6,11302.52,12883.68,10351.41,-1242.18,19968.74,-397.01,4834.1,4059.84,9260.24,8963.99,9246.83,7571.61,7542.42,2205.76,22804.59,9915.01,5555.84,6221.97,4103.78,7826.73,7057.97,12268.2,7316.4
1876538,10920.3,8939.89,10968.81,3891.71,26113.45,4805.31,12891.15,2510.91,11975.3,11309.31,12876.08,10342.2,-1246.91,19948.89,-395.76,4827.93,4051.66,9254.34,8961.31,9244.5,7565.75,7534.68,2201.83,22809.46,9916.49,5552.75,6215.8,4101.95,7812.07,7072.67,12281.08,7335.93
1876539,10931.3,8955.85,10980.61,3905.21,26132.01,4815.95,12903.84,2526.02,11994.44,11323.3,12886.36,10353.73,-1234.44,19941.02,-387.98,4838.26,4064.58,9268.64,8967.65,9255.37,7575.05,7546.71,2216.62,22832.44,9920.91,5559.01,6223.75,4115.58,7825.35,7079.24,12282.1,7338.7
1876540,10929.91,8955.45,10980.56,3908.56,26144.61,4818.72,12904.6,2526.78,12003.38,11323.39,12890.16,10358.74,-1233.24,19942.58,-389.32,4841.79,4068.38,9269.58,8942.58,9265.87,7578.27,7550.55,2213.49,22816.48,9917.47,5557.85,6222.68,4107.62,7825.26,7054.12,12259.22,7311.3
1876541,10921.73,8945.44,10976.23,3903.96,26149.57,4818.54,12902.95,2520.2,11992.52,11322.77,12890.83,10358.02,-1236.14,19986.26,-383.96,4843.98,4067.97,9269.27,8928.9,9267.61,7580.73,7553.28,2214.52,22799.18,9933.52,5565.32,6231.49,4115.31,7827.98,7078.57,12278.62,7338.26
1876542,10908.63,8929.43,10965.86,3891.57,26151.94,4811.84,12891.95,2497.27,11972.44,11320.18,12886.63,10353.46,-1249.51,20000.65,-373.05,4842.37,4064.58,9266.09,8943.96,9259.84,7576.84,7549.3,2212.91,22826.36,9944.34,5556.87,6221.12,4108.7,7829.95,7048.53,12251.44,7312.1
1876543,10920.17,8936.63,10979.49,3902.84,26168.98,4827.89,12904.47,2505.54,11982.59,11335.87,12902.68,10367.36,-1235.65,20008.07,-344.75,4860.16,4077.36,9283.48,8952.01,9277.36,7594.27,7562.53,2227.62,22862.79,9974.47,5577.79,6236.18,4120.5,7831.07,7040.75,12253.85,7318.01
1876544,10922.54,8940.56,10980.79,3903.24,26165.31,4825.79,12904.87,2509.43,11984.29,11334.7,12901.2,10365.53,-1233.68,19995.29,-364.42,4861.33,4076.56,9282.23,8962.69,9300.07,7603.71,7562.53,2227.31,22842.63,10007.77,5593.97,6235.38,4122.65,7824.32,7020.77,12247.1,7299.32
1876545,10922.85,8943.78,10974.57,3899.04,26145.95,4812.06,12897.0,2509.97,11981.34,11321.7,12884.71,10348.54,-1242.27,19980.81,-372.78,4839.51,4058.36,9263.81,8984.73,9260.19,7577.29,7542.6,2208.8,22836.24,9963.11,5563.84,6221.07,4107.58,7811.53,7050.23,12264.67,7310.85
1876546,10936.17,8957.33,10983.74,3910.08,26142.87,4817.25,12906.52,2526.78,11999.0,11323.48,12889.31,10353.91,-1229.39,20000.83,-370.68,4843.27,4063.37,9273.43,9012.49,9260.37,7582.74,7547.2,2215.1,22862.21,9941.52,5574.44,6226.35,4108.92,7805.86,7047.55,12280.99,7327.04
1876547,10942.48,8965.2,10990.71,3917.14,26148.64,4824.36,12914.7,2535.81,12008.43,11331.17,12896.06,10363.07,-1218.84,20017.37,-375.33,4850.6,4073.29,9287.42,9018.44,9274.68,7593.38,7556.63,2230.17,22865.83,9927.35,5584.85,6233.23,4123.49,7801.79,7029.27,12286.58,7322.25
1876548,10930.81,8952.19,10982.22,3906.64,26144.92,4818.05,12906.7,2522.89,11994.39,11326.08,12890.25,10358.11,-1229.57,19992.16,-366.21,4846.71,4068.42,9280.04,9000.33,9283.48,7587.21,7551.67,2227.49,22874.19,9940.89,5569.83,6225.99,4128.32,7813.99,7045.23,12271.69,7309.96
1876549,10924.46,8944.77,10977.7,3902.3,26148.95,4816.85,12903.62,2514.39,11991.13,11322.01,12888.37,10357.31,-1237.84,19976.42,-368.67,4842.01,4064.62,9269.18,8961.35,9263.5,7576.62,7545.68,2210.32,22845.9,9926.5,5551.32,6214.77,4103.33,7806.21,7050.86,12250.68,7300.35
1876550,10921.55,8939.31,10978.77,3903.73,26153.06,4819.66,12908.49,2516.4,11991.17,11319.59,12889.27,10362.67,-1233.19,19986.84,-406.13,4837.63,4069.09,9274.59,8948.16,9243.03,7572.73,7550.64,2217.11,22834.01,9918.27,5553.02,6226.97,4116.88,7821.68,7063.55,12261.76,7327.26
1876551,10913.42,8925.23,10970.82,3895.37,26144.12,4813.94,12901.74,2505.45,11982.86,11304.08,12881.62,10359.27,-1243.61,19978.93,-410.69,4828.02,4064.44,9265.69,8964.97,9244.37,7564.9,7546.89,2213.72,22840.53,9905.76,5546.36,6220.54,4115.4,7830.67,7050.46,12256.36,7337.0
1876552,10913.6,8926.17,10971.35,3895.82,26150.69,4813.49,12898.92,2502.1,11982.86,11304.53,12880.51,10357.93,-1248.26,19979.51,-399.6,4826.19,4062.16,9262.74,8989.78,9232.52,7559.67,7541.34,2208.75,22823.19,9882.96,5535.1,6209.54,4105.93,7824.5,7015.36,12224.48,7299.05
1876553,10919.01,8934.13,10973.95,3897.43,26137.46,4811.7,12901.16,2506.93,11980.13,11304.31,12879.3,10353.73,-1247.41,19969.32,-386.33,4827.31,4059.17,9259.08,8970.11,9241.37,7561.95,7538.53,2204.6,22801.82,9894.98,5540.6,6213.83,4103.24,7815.69,7025.96,12248.49,7303.83
1876554,10932.46,8949.41,10981.99,3904.76,26128.7,4813.58,12907.51,2520.56,11985.09,11302.87,12879.66,10353.46,-1237.97,19977.27,-386.73,4825.79,4058.18,9260.95,8957.82,9234.89,7560.57,7536.87,2199.9,22800.12,9894.49,5541.8,6213.65,4094.57,7802.82,7036.06,12276.16,7333.34
1876555,10936.22,8954.38,10984.9,3908.56,26138.53,4818.1,12911.66,2528.16,11992.34,11313.11,12884.93,10359.27,-1226.04,19998.64,-389.77,4831.28,4065.56,9276.82,8955.85,9239.67,7566.78,7543.27,2214.39,22834.27,9894.8,5547.03,6215.71,4106.19,7795.71,7016.12,12259.89,7310.76
1876556,10932.64,8954.56,10986.2,3911.47,26141.39,4822.66,12916.22,2532.5,11997.25,11317.31,12893.34,10366.74,-1217.63,20003.83,-381.23,4844.65,4076.87,9289.21,9016.2,9280.18,7590.34,7558.11,2234.68,22912.42,9963.33,5581.81,6233.05,4130.96,7806.84,7028.68,12268.69,7304.15
1876557,10931.34,8951.07,10987.09,3912.72,26149.62,4828.11,12919.26,2531.74,11996.81,11325.99,12901.16,10371.79,-1217.23,19999.67,-366.52,4854.08,4081.12,9290.1,9029.79,9301.81,7597.27,7564.23,2239.69,22920.55,9976.3,5586.06,6237.84,4136.99,7822.35,7047.68,12269.59,7333.07
1876558,10917.53,8936.63,10976.41,3902.44,26149.71,4820.87,12909.16,2518.33,11981.79,11315.03,12893.51,10364.86,-1228.32,19974.01,-379.04,4847.07,4073.43,9275.3,8978.61,9294.48,7586.9,7555.69,2221.0,22843.21,9981.48,5563.84,6229.57,4122.82,7813.99,7035.66,12252.06,7314.12
1876559,10899.78,8912.45,10961.88,3883.57,26140.99,4811.26,12893.6,2494.95,11959.08,11303.1,12884.53,10351.9,-1248.84,19940.13,-372.02,4840.76,4062.03,9255.77,8908.73,9300.61,7582.78,7547.02,2205.94,22778.84,9976.88,5563.17,6227.64,4112.27,7805.41,7037.27,12255.06,7328.06
1876560,10905.68,8914.99,10966.84,3887.68,26145.6,4816.0,12896.55,2492.71,11961.49,11300.64,12888.46,10356.41,-1248.75,19967.53,-385.08,4841.61,4066.32,9263.5,8922.19,9264.49,7582.07,7550.02,2212.78,22815.5,9937.63,5567.19,6228.49,4107.89,7821.55,7037.49,12250.9,7320.15
1876561,10916.99,8929.48,10973.86,3897.61,26143.14,4816.62,12902.01,2501.65,11967.48,11297.2,12884.8,10356.86,-1243.16,19972.27,-406.89,4831.82,4068.51,9267.08,8946.33,9217.46,7570.58,7549.44,2214.74,22820.91,9892.93,5557.22,6229.16,4108.07,7830.84,7043.84,12258.19,7310.09
1876562,10921.69,8936.5,10974.44,3895.15,26133.03,4812.51,12900.09,2505.59,11970.39,11298.45,12878.81,10346.35,-1246.51,19943.25,-409.57,4824.18,4058.0,9252.19,8926.04,9230.38,7565.48,7539.69,2199.55,22779.74,9913.13,5557.36,6227.06,4100.87,7817.79,7062.61,12288.36,7334.59
1876563,10924.46,8940.3,10975.6,3892.74,26132.68,4813.4,12901.02,2508.18,11975.62,11302.43,12880.77,10346.09,-1245.39,19950.54,-405.86,4828.11,4057.38,9252.28,8917.94,9244.32,7571.88,7539.74,2196.73,22760.07,9930.52,5566.97,6225.94,4097.61,7809.39,7049.92,12296.99,7354.75
1876564,10925.8,8944.18,10977.79,3895.42,26139.61,4815.5,12904.82,2511.35,11976.56,11312.08,12883.46,10351.94,-1240.43,19967.98,-402.2,4831.37,4064.84,9262.29,8955.27,9235.65,7572.23,7548.54,2212.29,22782.1,9903.57,5562.19,6233.95,4116.83,7833.3,7083.09,12309.02,7353.63
1876565,10912.79,8929.48,10967.38,3885.0,26135.85,4808.13,12893.96,2498.17,11967.48,11308.69,12879.75,10347.52,-1250.0,19965.61,-403.72,4830.61,4061.67,9256.13,8958.45,9230.29,7571.56,7546.66,2206.92,22798.56,9893.69,5558.88,6225.59,4104.9,7836.57,7065.21,12277.55,7315.23
1876566,10903.0,8917.32,10960.8,3876.64,26129.01,4804.55,12887.48,2490.21,11961.94,11308.95,12876.75,10341.53,-1256.88,19962.03,-422.05,4828.56,4055.1,9249.64,8956.84,9218.31,7566.96,7541.93,2199.14,22798.78,9892.03,5557.14,6226.35,4101.9,7829.77,7058.01,12269.23,7335.31
1876567,10887.85,8900.91,10946.9,3864.08,26120.87,4794.49,12875.59,2476.31,11952.33,11300.06,12866.69,10332.9,-1268.37,19959.84,-415.25,4820.11,4046.83,9242.36,8956.39,9228.99,7558.82,7532.67,2191.59,22804.55,9903.43,5542.74,6210.16,4091.35,7824.32,7025.11,12239.55,7327.84
1876568,10894.6,8903.06,10953.43,3872.62,26133.26,4805.49,12882.03,2480.42,11954.03,11304.98,12877.6,10345.95,-1259.3,19976.69,-394.46,4833.16,4059.7,9255.81,8963.76,9251.34,7574.2,7546.93,2207.5,22835.17,9919.88,5557.22,6222.14,4105.7,7837.1,7032.84,12230.87,7300.35
1876569,10908.68,8917.41,10965.59,3885.72,26136.16,4813.27,12893.74,2496.96,11960.78,11307.84,12884.22,10351.0,-1245.31,19981.07,-386.64,4838.04,4065.02,9263.68,8966.76,9256.48,7579.92,7551.4,2215.46,22839.24,9925.52,5570.41,6236.27,4120.45,7835.81,7052.91,12269.27,7325.96
1876570,10923.74,8931.58,10975.73,3893.36,26138.62,4816.76,12899.5,2508.18,11962.47,11316.42,12885.65,10350.24,-1238.29,19972.94,-359.82,4841.12,4063.37,9263.95,8976.59,9253.98,7578.76,7546.71,2211.08,22825.69,9908.89,5562.05,6224.92,4109.59,7829.19,7043.88,12282.6,7341.7
1876571,10936.71,8940.56,10985.93,3903.37,26145.51,4824.09,12907.42,2520.43,11974.81,11327.24,12891.68,10355.12,-1226.53,19973.12,-360.71,4848.23,4068.78,9271.46,8998.01,9258.81,7585.87,7551.36,2217.02,22840.31,9936.51,5569.52,6231.26,4116.3,7833.08,7047.64,12290.6,7337.76
1876572,10931.34,8935.96,10981.23,3901.99,26143.9,4816.98,12903.08,2519.53,11979.37,11320.49,12883.28,10351.72,-1227.51,19981.61,-393.79,4836.29,4065.65,9272.31,8973.73,9252.73,7574.51,7546.8,2215.28,22846.97,9913.67,5559.15,6221.34,4109.46,7819.31,7036.33,12265.12,7302.0
1876573,10941.94,8951.92,10994.73,3918.22,26157.35,4833.25,12920.25,2538.09,12004.18,11344.0,12901.16,10368.93,-1209.27,20018.85,-370.86,4856.27,4083.35,9294.84,8949.33,9277.99,7593.6,7566.24,2237.45,22849.03,9950.24,5581.86,6244.23,4132.52,7814.35,7059.35,12286.58,7325.2
1876574,10939.66,8950.26,10992.36,3915.49,26159.77,4833.74,12918.91,2533.44,12004.59,11342.97,12903.62,10370.94,-1213.43,20016.66,-367.51,4860.97,4085.18,9292.87,8955.32,9281.07,7600.04,7568.93,2235.31,22840.93,9939.73,5590.17,6244.09,4131.54,7818.86,7030.56,12272.58,7331.19
1876575,10924.28,8936.05,10979.8,3904.72,26154.13,4822.66,12906.84,2516.67,11993.77,11324.33,12894.01,10362.76,-1229.97,20001.06,-363.62,4852.74,4078.08,9279.95,9006.68,9267.26,7591.01,7561.82,2230.88,22869.77,9904.01,5577.16,6238.42,4134.0,7816.09,7020.28,12252.6,7309.29
1876576,10912.84,8923.44,10969.52,3896.22,26154.36,4816.22,12896.91,2504.2,11986.26,11318.66,12887.88,10358.65,-1237.84,19997.08,-375.38,4845.68,4074.01,9278.08,9034.49,9269.22,7579.92,7559.05,2234.01,22931.15,9914.47,5561.92,6234.3,4134.8,7820.03,7038.65,12246.43,7281.04
1876577,10928.48,8938.69,10984.45,3912.9,26167.63,4831.11,12913.27,2524.23,12002.75,11333.68,12902.54,10371.79,-1217.72,20014.69,-370.86,4858.11,4086.39,9296.9,9023.44,9284.15,7594.18,7570.76,2246.31,22958.5,9950.01,5580.69,6252.81,4144.82,7826.87,7072.72,12278.8,7314.79
1876578,10927.68,8936.94,10980.03,3902.57,26155.79,4822.21,12906.57,2518.42,11986.79,11331.8,12893.87,10355.97,-1231.76,19990.01,-386.69,4848.9,4070.88,9274.28,8953.75,9264.4,7585.38,7554.98,2221.32,22856.27,9943.58,5575.64,6241.68,4123.94,7798.52,7069.1,12293.15,7346.66
1876579,10925.09,8934.57,10973.14,3891.13,26137.28,4810.14,12896.2,2506.97,11972.18,11315.84,12880.33,10339.87,-1250.98,19967.31,-394.24,4834.06,4054.61,9247.72,8932.11,9259.84,7572.23,7538.17,2198.25,22766.59,9923.64,5563.39,6223.89,4105.66,7789.05,7043.48,12280.09,7326.41
1876580,10933.04,8942.04,10980.65,3896.27,26145.06,4816.98,12903.35,2512.83,11978.03,11319.28,12885.11,10344.21,-1247.18,19974.14,-378.95,4838.35,4057.56,9246.69,8961.08,9272.93,7578.45,7541.21,2193.29,22762.7,9943.75,5573.99,6228.22,4097.21,7798.12,7071.91,12288.81,7327.48
1876581,10922.36,8934.13,10973.72,3889.02,26136.83,4812.2,12899.15,2504.11,11968.55,11307.08,12882.07,10344.48,-1251.65,19955.32,-387.85,4838.17,4060.6,9248.21,8940.16,9271.19,7582.34,7546.71,2202.05,22752.73,9947.29,5580.83,6236.4,4107.4,7824.14,7102.31,12300.84,7314.07
1876582,10921.73,8935.69,10975.69,3896.53,26139.07,4816.53,12903.93,2509.79,11981.79,11310.03,12886.81,10355.92,-1237.66,19980.54,-382.75,4842.24,4071.77,9273.87,8982.94,9273.74,7582.52,7554.58,2233.65,22834.72,9931.1,5569.29,6231.4,4139.36,7832.41,7026.45,12268.34,7301.2
1876583,10911.59,8925.99,10969.39,3891.71,26131.16,4813.81,12900.58,2503.89,11975.3,11310.25,12885.6,10356.37,-1239.94,19972.58,-381.81,4843.04,4072.13,9274.59,8968.59,9273.78,7582.56,7555.96,2231.82,22863.55,9942.73,5568.18,6234.8,4135.83,7842.47,7009.28,12256.89,7300.21
1876584,10892.5,8904.4,10951.37,3872.4,26115.02,4798.25,12882.87,2479.79,11950.32,11297.2,12871.21,10338.8,-1267.84,19917.24,-389.64,4830.93,4054.87,9240.21,8915.17,9261.49,7571.79,7542.46,2191.68,22772.09,9937.41,5564.47,6229.16,4096.76,7826.78,7049.2,12272.18,7340.13
1876585,10904.43,8912.45,10962.01,3886.83,26133.88,4808.93,12893.07,2492.09,11968.33,11304.8,12881.4,10350.78,-1254.78,19893.05,-380.65,4837.99,4064.75,9249.55,8944.1,9247.01,7575.94,7549.66,2198.61,22777.01,9916.53,5564.11,6227.02,4100.79,7836.34,7025.51,12240.17,7312.33
1876586,10915.65,8926.21,10974.17,3900.29,26137.55,4816.62,12907.28,2511.26,11979.42,11305.78,12887.61,10357.4,-1237.44,19926.09,-388.16,4840.45,4071.5,9261.98,8941.77,9238.11,7580.01,7554.4,2208.49,22796.37,9925.78,5572.65,6238.86,4115.22,7842.74,7045.9,12274.37,7336.42
1876587,10918.42,8930.68,10972.47,3895.28,26126.1,4809.83,12903.22,2507.69,11969.85,11301.89,12877.91,10346.31,-1243.65,19971.86,-399.16,4827.26,4058.9,9256.26,8936.85,9223.22,7562.53,7539.51,2203.26,22803.12,9884.97,5548.6,6224.2,4109.32,7833.26,7057.38,12292.74,7354.08
1876588,10943.82,8956.61,10995.4,3918.44,26145.95,4833.07,12927.18,2533.93,11996.99,11326.79,12901.25,10371.25,-1217.14,20021.08,-367.95,4855.11,4084.92,9288.67,8980.53,9280.04,7595.61,7565.8,2235.58,22849.38,9940.22,5585.52,6246.24,4136.99,7840.14,7052.91,12299.63,7352.92
1876589,10954.77,8973.47,11007.61,3936.59,26152.7,4842.46,12943.27,2558.65,12021.8,11328.04,12908.45,10386.63,-1188.62,20042.32,-369.3,4859.14,4100.96,9320.19,9001.58,9269.04,7596.6,7580.24,2267.18,22899.27,9916.98,5585.43,6254.55,4166.5,7840.59,7053.41,12293.95,7350.55
1876590,10937.83,8956.52,10991.47,3921.12,26144.16,4828.11,12925.84,2538.09,12004.45,11311.46,12894.68,10373.31,-1208.38,20017.1,-419.41,4843.71,4086.35,9297.21,8991.79,9239.72,7580.73,7566.69,2236.83,22872.9,9898.92,5565.49,6239.67,4130.69,7823.96,7046.43,12265.43,7316.62
1876591,10929.87,8946.91,10985.61,3914.28,26148.5,4826.95,12920.16,2527.8,11997.12,11312.71,12896.42,10371.52,-1218.35,20004.23,-407.2,4848.59,4086.93,9288.18,9034.84,9258.05,7590.43,7570.63,2235.98,22880.54,9930.21,5582.53,6249.37,4136.1,7830.31,7077.72,12274.37,7317.51
1876592,10910.56,8927.11,10971.22,3896.98,26144.97,4815.77,12903.39,2506.3,11977.76,11309.58,12887.75,10356.73,-1238.64,19976.6,-374.75,4843.76,4072.76,9270.21,8986.74,9278.34,7584.8,7558.91,2218.37,22842.77,9954.26,5576.8,6240.74,4125.1,7834.15,7050.1,12262.21,7310.27
1876593,10914.04,8926.79,10973.05,3899.49,26151.05,4818.72,12902.46,2503.57,11981.92,11313.51,12890.83,10358.78,-1239.94,19990.91,-356.78,4846.26,4073.69,9272.13,8949.59,9270.56,7581.62,7559.14,2217.87,22838.21,9916.93,5566.03,6235.29,4117.91,7821.23,7029.18,12255.24,7318.54
1876594,10935.19,8949.06,10992.54,3920.67,26163.34,4833.88,12921.5,2531.16,12004.27,11329.16,12905.49,10372.51,-1213.39,20008.79,-346.18,4860.83,4087.82,9295.55,8921.07,9264.17,7595.97,7572.91,2238.71,22840.31,9903.07,5585.57,6255.54,4140.84,7818.15,7067.53,12289.61,7346.62
1876595,10952.71,8968.28,11004.48,3930.55,26165.44,4838.93,12931.6,2547.74,12012.45,11332.42,12906.52,10374.92,-1203.02,20002.4,-389.19,4856.32,4090.15,9299.44,8963.36,9260.19,7596.69,7573.93,2240.72,22811.3,9928.73,5590.98,6254.33,4143.03,7809.12,7085.55,12311.61,7365.93
1876596,10942.16,8954.06,10991.43,3911.82,26155.74,4826.14,12915.02,2527.49,11978.84,11328.04,12892.58,10356.1,-1227.42,19966.55,-385.39,4840.58,4071.1,9271.28,8972.08,9261.62,7580.42,7554.08,2219.3,22798.47,9953.99,5575.11,6234.21,4126.62,7821.1,7050.1,12288.94,7329.54
1876597,10944.71,8958.4,10995.54,3913.92,26159.81,4832.8,12920.16,2528.7,11977.81,11342.12,12903.17,10362.85,-1222.95,19977.77,-342.61,4858.2,4080.27,9278.21,8977.44,9289.34,7599.28,7562.94,2226.99,22835.17,9959.62,5592.32,6239.49,4129.89,7836.03,7018.49,12276.74,7328.87
1876598,10932.91,8949.5,10984.99,3906.24,26146.22,4821.23,12910.73,2521.41,11989.03,11316.38,12888.55,10353.91,-1231.54,19983.62,-387.09,4841.52,4071.15,9270.16,8960.32,9267.12,7582.96,7555.38,2213.45,22821.09,9907.9,5577.88,6236.54,4115.58,7826.6,7043.17,12284.65,7341.79
1876599,10919.45,8932.34,10973.1,3893.72,26143.45,4810.77,12898.34,2504.74,11980.67,11302.79,12876.66,10344.57,-1249.1,19970.3,-406.67,4827.35,4061.22,9254.83,8960.72,9245.84,7566.47,7545.64,2200.84,22796.14,9897.71,5556.2,6225.9,4106.06,7817.48,7046.92,12263.33,7316.58
1876600,10922.09,8934.66,10978.86,3901.09,26153.37,4819.89,12907.06,2512.69,11984.25,11303.63,12887.48,10356.59,-1236.27,19994.75,-398.04,4839.33,4074.72,9271.91,8974.4,9266.05,7582.16,7559.14,2218.63,22840.93,9938.48,5578.55,6238.77,4120.28,7819.94,7055.24,12273.48,7335.57
1876601,10929.91,8939.18,10987.58,3913.3,26167.95,4832.8,12916.13,2520.74,12003.51,11310.7,12901.25,10372.55,-1221.25,20030.52,-379.8,4855.29,4091.08,9293.36,8997.11,9279.82,7597.27,7574.11,2234.91,22898.51,9948.54,5587.89,6247.98,4128.23,7825.17,7073.39,12259.89,7300.39
1876602,10936.31,8942.13,10995.72,3917.28,26168.89,4840.31,12922.93,2524.76,12003.56,11321.34,12906.75,10374.52,-1222.24,20011.7,-363.48,4860.34,4092.65,9288.94,8998.32,9275.12,7601.2,7577.2,2237.41,22890.11,9958.06,5598.13,6260.46,4143.66,7830.08,7098.11,12297.39,7338.48
1876603,10943.68,8952.28,11000.86,3921.12,26163.88,4840.36,12927.62,2534.78,12005.03,11332.51,12906.08,10372.28,-1216.52,20007.58,-353.11,4859.85,4091.22,9292.2,9006.72,9272.0,7601.2,7573.93,2247.47,22881.3,9947.15,5599.87,6256.21,4158.5,7819.94,7054.79,12300.75,7356.54
1876604,10964.34,8971.72,11016.46,3935.87,26176.13,4853.37,12942.46,2551.59,12012.41,11354.51,12920.65,10384.22,-1200.02,20019.97,-338.94,4875.09,4101.72,9305.03,8996.35,9320.28,7619.89,7580.86,2251.98,22889.53,9992.17,5615.88,6256.39,4154.03,7799.06,7023.32,12285.37,7320.82
1876605,10952.13,8954.47,11001.13,3916.12,26161.51,4838.39,12926.51,2528.12,11980.71,11341.32,12905.36,10366.43,-1223.45,19984.65,-350.52,4859.0,4083.08,9278.92,8982.0,9301.5,7601.83,7561.6,2226.19,22820.82,9985.91,5591.33,6236.58,4126.09,7791.42,7026.32,12279.96,7275.22
1876606,10944.98,8948.16,10995.67,3909.9,26152.12,4832.85,12921.28,2521.01,11968.42,11330.68,12897.54,10361.55,-1230.69,19972.13,-361.25,4850.69,4078.88,9270.21,8997.61,9274.01,7590.25,7558.15,2223.37,22819.07,9924.98,5578.91,6235.64,4130.11,7811.0,7061.99,12273.3,7294.0
1876607,10919.1,8918.79,10973.32,3886.79,26134.73,4813.94,12899.73,2493.92,11948.04,11306.0,12881.18,10341.88,-1256.66,19943.25,-384.99,4837.77,4058.5,9239.45,8930.73,9274.59,7582.29,7540.05,2185.73,22791.81,9940.54,5579.58,6221.56,4087.2,7807.6,7041.29,12251.93,7320.42
1876608,10922.98,8924.52,10977.97,3898.32,26144.79,4818.72,12906.21,2503.75,11975.22,11301.18,12882.61,10350.78,-1245.39,19957.02,-392.94,4832.85,4065.38,9255.41,8948.7,9238.24,7565.89,7544.16,2202.36,22803.38,9852.56,5544.8,6217.09,4101.19,7813.23,7021.76,12248.49,7311.52
1876609,10936.31,8936.59,10994.2,3918.31,26163.52,4836.29,12924.27,2526.37,12005.84,11318.79,12900.18,10372.28,-1221.93,19959.57,-380.96,4850.42,4087.73,9283.53,9030.46,9234.98,7584.75,7568.75,2234.46,22884.07,9879.02,5569.16,6247.67,4137.08,7836.75,7060.69,12277.77,7329.27
1876610,10934.97,8931.4,10991.38,3914.82,26163.25,4834.28,12919.26,2521.9,12001.5,11324.87,12900.0,10368.48,-1229.61,19964.98,-377.83,4852.61,4084.96,9275.35,9016.38,9251.34,7592.62,7568.12,2225.92,22872.72,9914.03,5584.54,6247.31,4129.13,7820.25,7064.94,12272.45,7337.36
1876611,10939.57,8937.52,10994.2,3912.49,26158.74,4832.94,12918.24,2519.04,11989.34,11326.97,12898.48,10360.88,-1235.11,19997.79,-374.26,4851.58,4079.46,9270.56,8975.75,9271.46,7594.5,7562.53,2226.64,22800.39,9939.33,5589.23,6249.91,4137.89,7822.98,7094.8,12296.5,7359.8
1876612,10936.66,8936.5,10987.58,3903.11,26145.68,4823.55,12908.8,2513.05,11977.72,11321.61,12890.16,10348.46,-1239.99,19988.9,-372.51,4844.61,4067.75,9260.46,8953.93,9282.72,7588.28,7547.96,2214.12,22786.44,9944.25,5580.16,6232.2,4121.97,7822.35,7067.89,12284.56,7340.27
1876613,10937.42,8937.88,10987.09,3904.22,26147.79,4821.58,12908.53,2515.51,11979.33,11316.6,12889.04,10348.46,-1237.79,19974.1,-364.29,4840.85,4067.17,9259.79,8912.8,9247.14,7580.5,7545.9,2207.82,22785.82,9904.1,5566.66,6224.69,4109.19,7821.46,7029.44,12263.69,7312.6
1876614,10939.57,8943.29,10993.57,3912.81,26153.24,4829.68,12919.67,2530.26,11989.61,11321.43,12898.48,10359.09,-1221.84,19982.82,-343.73,4854.26,4080.36,9277.49,8919.73,9248.48,7597.72,7561.51,2224.98,22805.75,9917.33,5591.6,6246.95,4129.26,7836.43,7079.51,12309.55,7360.52
1876615,10930.85,8936.0,10986.2,3907.22,26148.68,4825.56,12914.57,2522.44,11986.7,11309.36,12894.5,10360.08,-1227.96,19984.2,-389.5,4850.82,4081.92,9274.14,8957.64,9245.84,7597.36,7562.44,2224.04,22801.46,9924.85,5587.85,6242.71,4128.1,7831.65,7067.35,12286.98,7333.61
1876616,10916.55,8923.0,10974.75,3896.04,26143.85,4817.52,12906.52,2509.12,11977.27,11309.71,12888.37,10354.54,-1239.31,19976.92,-393.26,4845.77,4076.78,9264.17,8977.58,9224.03,7591.05,7560.16,2216.13,22802.85,9931.86,5584.4,6243.47,4123.81,7827.54,7087.65,12295.07,7327.35
1876617,10909.08,8914.59,10969.39,3891.84,26148.46,4816.62,12902.68,2501.12,11974.9,11317.36,12887.3,10355.97,-1243.65,19979.46,-388.65,4845.1,4076.69,9262.61,8975.21,9221.26,7587.75,7558.11,2212.51,22814.96,9899.32,5576.31,6235.73,4114.69,7832.68,7052.42,12272.05,7313.27
1876618,10909.22,8909.54,10970.73,3893.27,26149.89,4820.33,12902.81,2498.97,11969.94,11316.15,12890.74,10360.66,-1241.73,19985.45,-385.03,4848.27,4079.91,9267.48,8975.57,9253.62,7589.45,7561.51,2217.61,22827.12,9900.93,5576.85,6237.08,4121.17,7831.6,7027.43,12237.49,7305.13
1876619,10923.92,8928.05,10982.62,3909.19,26149.31,4828.56,12916.45,2521.01,11981.12,11319.06,12896.91,10369.24,-1220.14,20008.12,-381.59,4852.03,4087.87,9286.3,9014.64,9281.03,7593.07,7569.11,2235.17,22854.57,9926.23,5585.97,6249.46,4142.23,7809.21,7076.47,12283.0,7355.56
1876620,10938.45,8944.99,10993.62,3919.11,26160.39,4835.04,12925.21,2536.34,11997.79,11333.05,12903.71,10376.08,-1205.52,20017.6,-366.97,4858.69,4094.79,9300.78,9021.25,9290.55,7598.48,7570.98,2252.83,22894.09,9935.48,5585.79,6243.33,4158.36,7825.61,7047.28,12261.81,7300.21
1876621,10938.45,8943.29,10991.52,3912.49,26151.9,4832.4,12921.95,2535.18,11998.1,11334.88,12901.83,10367.9,-1211.55,20004.99,-353.43,4860.57,4086.03,9290.9,8979.05,9306.64,7601.69,7562.4,2239.69,22883.36,9963.02,5589.01,6241.14,4142.76,7837.15,7033.38,12286.04,7318.41
1876622,10936.75,8945.53,10990.71,3912.63,26147.61,4830.57,12924.14,2536.88,11999.98,11329.12,12900.58,10369.6,-1210.35,20002.58,-368.36,4859.63,4088.8,9288.8,8971.72,9287.51,7604.02,7565.04,2232.09,22846.66,9943.44,5597.41,6244.32,4132.35,7816.58,7033.29,12293.91,7340.63
1876623,10915.3,8922.41,10968.67,3888.85,26132.68,4809.78,12902.14,2507.91,11970.61,11306.45,12878.72,10347.65,-1243.65,19954.52,-402.11,4834.68,4065.47,9253.31,8952.45,9273.65,7580.1,7543.4,2201.29,22787.65,9945.41,5572.02,6221.61,4105.66,7807.96,7018.27,12271.82,7329.27
1876624,10924.06,8928.05,10979.27,3900.42,26150.33,4822.34,12912.69,2514.71,11984.38,11319.33,12891.82,10363.83,-1232.25,19973.12,-385.3,4848.09,4081.12,9273.2,8990.77,9283.93,7592.26,7560.08,2226.5,22830.7,9975.49,5579.62,6236.54,4133.64,7834.15,7051.66,12270.79,7314.65
1876625,10920.62,8923.22,10979.31,3900.51,26151.9,4823.15,12912.96,2511.08,11986.26,11318.83,12891.64,10363.97,-1233.68,19987.06,-391.56,4846.31,4080.94,9277.4,8983.21,9258.18,7587.57,7560.39,2225.16,22839.41,9920.11,5578.68,6240.12,4129.98,7825.97,7062.03,12268.47,7329.14
1876626,10921.91,8919.15,10981.81,3902.53,26159.27,4829.81,12914.48,2510.68,11986.97,11328.27,12897.0,10367.01,-1231.85,19989.43,-380.29,4851.31,4082.5,9283.08,8997.96,9261.27,7588.86,7563.2,2234.68,22857.61,9901.2,5578.28,6242.4,4140.35,7835.49,7047.15,12265.61,7339.02
1876627,10932.42,8930.01,10990.4,3912.49,26158.74,4836.07,12922.12,2519.62,11995.69,11322.1,12902.63,10372.82,-1224.61,19996.14,-379.13,4855.74,4088.49,9286.43,9009.72,9265.96,7596.82,7568.79,2236.38,22846.17,9906.16,5591.91,6247.54,4142.23,7823.6,7056.58,12268.11,7325.02
1876628,10944.58,8945.66,11001.62,3922.15,26158.16,4841.34,12930.39,2533.61,12003.91,11324.06,12904.78,10372.91,-1217.99,19993.01,-378.68,4854.08,4087.82,9283.39,9002.12,9261.04,7594.32,7565.26,2229.94,22823.72,9916.04,5586.95,6251.07,4139.01,7831.25,7090.47,12303.65,7344.96
1876629,10950.3,8952.81,11001.57,3920.5,26145.46,4834.77,12928.29,2540.77,12003.87,11314.81,12894.54,10361.78,-1216.25,19996.68,-391.87,4839.56,4074.1,9280.35,8985.76,9246.83,7577.24,7551.31,2227.44,22850.19,9903.43,5567.86,6238.24,4136.01,7827.18,7078.17,12329.27,7398.11
