Record datetime: 2025-09-14 17:53:29.823497
Timestamp,Fp1,Fp2,AF3,AF4,F3,Fz,F4,FC3,FCz,FC4,C3,Cz,C4,CP3,CPz,CP4,P3,Pz,P4,O1,Oz,O2
0.000,-9876.74,-2241.75,687.0,3562.38,-123.87,4192.56,-1497.3,4945.86,20844.61,9236.5,4372.22,9300.47,9269.45,-850.75,74.48,24554.91,-2216.4,-5221.14,-3703.06,519.14,12011.16,710.83
0.002,-9872.59,-2230.79,699.3,3573.64,-108.23,4212.23,-1476.06,4951.31,20853.42,9248.03,4374.06,9306.86,9276.11,-847.98,83.28,24554.2,-2177.86,-5202.15,-3700.2,532.6,12008.74,714.41
0.004,-9869.46,-2221.81,714.18,3583.3,-89.76,4236.95,-1452.82,4956.28,20860.17,9256.8,4378.75,9315.49,9280.62,-847.49,94.82,24545.88,-2125.7,-5180.28,-3700.15,548.74,11998.19,714.05
0.006,-9871.51,-2221.14,727.77,3589.24,-67.32,4266.9,-1428.77,4963.74,20870.4,9264.71,4386.35,9329.89,9287.19,-845.12,114.35,24536.09,-2046.7,-5140.68,-3698.95,575.6,11992.43,720.31
0.008,-9879.65,-2232.09,723.35,3581.29,-70.32,4269.23,-1429.57,4960.34,20869.38,9257.24,4390.69,9335.3,9285.23,-844.94,121.59,24527.95,-2017.78,-5130.71,-3699.53,577.3,11982.28,720.4
0.010,-9885.91,-2243.36,707.39,3567.29,-93.52,4241.2,-1455.68,4949.3,20855.61,9241.51,4385.68,9323.76,9274.95,-849.37,108.58,24528.71,-2072.5,-5155.61,-3703.42,556.78,11982.28,719.01
0.012,-9888.95,-2252.12,690.09,3554.73,-118.87,4206.78,-1485.36,4939.69,20841.75,9227.07,4377.37,9307.53,9266.5,-853.66,88.69,24536.14,-2148.81,-5192.67,-3706.19,527.95,11986.44,714.94
0.014,-9893.46,-2260.25,670.55,3542.48,-144.03,4175.26,-1512.72,4929.36,20828.16,9216.88,4364.13,9289.74,9258.14,-861.44,67.01,24543.42,-2219.35,-5228.43,-3709.09,502.42,11989.34,706.76
0.016,-9896.59,-2261.95,662.42,3539.13,-150.83,4166.45,-1519.38,4927.0,20826.1,9216.61,4358.19,9283.71,9256.44,-864.21,59.41,24546.42,-2233.43,-5237.59,-3709.23,498.49,11990.5,700.41
0.018,-9889.8,-2251.22,675.07,3549.5,-134.29,4182.28,-1501.23,4934.19,20833.61,9226.62,4359.75,9287.37,9261.27,-861.48,63.88,24544.18,-2203.52,-5224.36,-3710.21,508.95,11988.13,697.55
0.020,-9883.36,-2242.28,696.39,3562.33,-105.28,4214.15,-1471.5,4945.06,20844.52,9237.04,4366.5,9295.64,9266.63,-857.37,76.4,24533.05,-2130.79,-5196.07,-3710.79,530.09,11984.33,702.65
0.022,-9880.01,-2235.44,712.71,3570.29,-84.09,4242.45,-1449.24,4949.75,20849.98,9243.97,4373.25,9306.73,9272.35,-857.23,90.39,24523.75,-2072.19,-5170.85,-3709.99,551.15,11974.81,705.38
0.024,-9888.72,-2242.42,711.9,3565.06,-82.88,4249.87,-1446.56,4947.96,20847.47,9241.55,4377.1,9313.7,9272.8,-859.51,101.07,24516.65,-2037.76,-5151.81,-3711.06,564.07,11969.54,712.26
0.026,-9897.13,-2255.78,700.82,3552.18,-95.98,4232.84,-1461.89,4943.04,20838.67,9229.12,4375.58,9307.85,9265.11,-860.72,96.96,24513.07,-2051.85,-5159.1,-3713.79,552.76,11970.83,716.87
0.028,-9901.87,-2265.3,680.79,3537.07,-127.14,4194.62,-1496.81,4929.99,20821.37,9213.48,4365.97,9291.75,9255.59,-866.98,74.7,24519.77,-2145.81,-5204.56,-3719.06,520.3,11966.14,705.56
0.030,-9904.28,-2270.94,661.43,3525.94,-155.52,4157.38,-1529.44,4918.46,20806.7,9202.17,4353.9,9273.69,9247.72,-873.46,50.43,24529.97,-2240.36,-5247.47,-3725.86,489.64,11963.82,687.81
0.032,-9906.25,-2270.36,656.74,3525.72,-156.33,4152.28,-1532.44,4921.9,20810.14,9204.94,4351.17,9269.49,9247.05,-871.54,47.56,24533.41,-2243.13,-5248.73,-3725.59,490.35,11976.15,688.93
0.034,-9897.84,-2257.3,668.72,3538.28,-141.04,4168.42,-1514.2,4930.97,20821.28,9217.9,4357.07,9277.0,9254.2,-864.39,55.16,24536.36,-2213.45,-5235.76,-3720.22,504.66,11988.27,696.79
0.036,-9887.38,-2242.86,689.95,3555.27,-113.5,4199.27,-1482.81,4943.27,20835.63,9234.0,4366.37,9289.52,9265.38,-857.01,70.45,24535.69,-2156.54,-5209.74,-3713.12,525.85,11991.76,705.02
0.038,-9879.29,-2231.78,712.44,3569.84,-85.38,4232.48,-1453.27,4953.1,20847.56,9248.21,4376.38,9304.76,9276.38,-851.82,87.98,24532.65,-2095.12,-5176.49,-3707.13,555.04,11991.67,715.17
0.040,-9881.35,-2232.31,725.54,3575.65,-66.65,4259.97,-1432.3,4959.36,20858.6,9255.59,4387.11,9321.48,9283.04,-847.67,107.47,24524.51,-2024.8,-5142.87,-3704.22,577.03,11984.56,721.56
0.042,-9888.5,-2239.29,718.12,3568.86,-78.1,4252.37,-1442.18,4954.53,20854.58,9247.72,4389.3,9323.31,9279.68,-847.62,108.32,24522.01,-2033.25,-5145.19,-3707.44,570.01,11977.54,721.34
0.044,-9890.47,-2245.05,704.48,3559.02,-99.78,4225.87,-1465.69,4947.02,20844.61,9236.14,4384.7,9313.97,9273.11,-849.19,95.84,24527.2,-2091.99,-5172.46,-3709.5,548.69,11980.85,720.08
0.046,-9894.58,-2251.58,685.04,3547.85,-129.15,4189.75,-1496.72,4935.76,20831.11,9224.88,4373.39,9297.39,9266.18,-853.75,74.57,24538.82,-2182.6,-5213.19,-3710.79,520.62,11986.93,715.17
0.048,-9890.83,-2248.63,679.4,3547.76,-137.73,4176.83,-1507.4,4938.57,20833.03,9227.47,4372.98,9294.57,9267.88,-849.32,68.58,24552.54,-2220.51,-5230.22,-3705.34,512.84,11993.1,711.5
0.050,-9881.53,-2237.32,687.9,3558.53,-126.24,4186.39,-1496.09,4949.44,20844.92,9241.46,4379.42,9301.9,9277.94,-839.49,78.01,24564.92,-2206.61,-5215.15,-3694.92,531.52,12005.17,717.98
0.052,-9879.29,-2230.48,700.46,3566.67,-107.65,4206.78,-1475.13,4954.17,20851.72,9248.21,4381.39,9305.75,9280.13,-837.03,85.65,24556.92,-2151.8,-5197.09,-3693.89,544.49,12003.15,722.54
0.054,-9879.87,-2229.41,713.83,3570.87,-87.93,4229.35,-1455.05,4956.19,20853.64,9250.98,4381.17,9309.01,9279.64,-841.45,92.85,24542.39,-2092.62,-5173.8,-3696.58,561.61,12007.49,731.75
0.056,-9882.78,-2233.25,722.86,3571.76,-72.55,4253.31,-1437.84,4957.66,20856.46,9252.24,4384.83,9317.73,9278.61,-846.28,102.95,24526.3,-2028.87,-5150.02,-3703.01,574.17,11997.03,731.89
0.058,-9890.29,-2243.18,715.3,3562.33,-82.57,4249.29,-1447.81,4951.85,20850.51,9244.55,4385.37,9320.54,9274.9,-851.56,104.03,24519.95,-2032.94,-5149.66,-3708.06,571.13,11974.9,719.55
0.060,-9892.17,-2250.24,705.91,3554.42,-97.32,4232.03,-1465.25,4947.38,20845.64,9235.74,4382.33,9313.35,9270.92,-854.33,95.17,24522.99,-2076.88,-5167.99,-3709.99,552.36,11969.81,714.76
0.062,-9891.41,-2255.38,689.01,3544.67,-124.32,4198.86,-1494.04,4935.89,20832.94,9224.97,4372.14,9297.39,9263.64,-860.59,73.67,24531.8,-2166.2,-5209.92,-3713.43,519.77,11978.3,706.14
0.064,-9889.84,-2255.87,680.16,3541.72,-135.99,4178.84,-1509.95,4933.88,20828.07,9221.03,4365.21,9284.87,9259.39,-863.05,58.16,24537.83,-2218.28,-5235.81,-3718.62,497.51,11980.13,693.57
0.066,-9886.36,-2251.85,678.55,3543.02,-136.3,4175.17,-1512.99,4937.19,20830.53,9224.03,4364.27,9283.39,9259.79,-860.45,55.03,24542.3,-2228.65,-5241.53,-3717.99,501.53,11992.34,699.65
0.068,-9874.96,-2237.72,692.68,3555.04,-118.96,4191.13,-1497.75,4946.75,20838.22,9234.58,4369.86,9290.9,9266.85,-854.82,63.57,24547.04,-2204.91,-5228.16,-3710.26,522.49,12004.81,709.62
0.070,-9862.66,-2223.55,717.31,3572.39,-86.9,4224.97,-1465.69,4961.37,20851.9,9249.64,4381.12,9304.85,9277.0,-846.55,82.84,24544.5,-2131.19,-5192.98,-3701.63,551.46,12006.6,720.53
0.072,-9857.61,-2215.59,737.61,3584.15,-58.96,4258.19,-1436.59,4970.54,20862.18,9259.25,4391.58,9318.89,9283.66,-842.75,102.73,24536.05,-2053.54,-5155.74,-3698.5,576.14,11995.87,726.52
0.074,-9861.41,-2218.68,741.32,3585.18,-52.57,4273.16,-1426.58,4973.49,20866.43,9260.24,4401.1,9332.79,9287.51,-838.73,119.18,24532.02,-2003.25,-5129.99,-3695.73,588.3,11986.53,736.85
0.076,-9864.85,-2224.85,732.65,3578.2,-65.31,4258.86,-1438.74,4969.87,20861.33,9251.66,4403.65,9332.35,9285.5,-836.13,119.18,24534.48,-2018.76,-5135.13,-3692.51,580.83,11994.57,748.96
0.078,-9871.02,-2234.55,709.85,3561.48,-100.18,4218.4,-1474.59,4953.06,20842.55,9234.31,4390.69,9314.11,9274.68,-846.64,91.87,24540.61,-2117.25,-5183.41,-3697.47,540.06,11986.26,739.75
0.080,-9878.35,-2242.95,687.05,3548.7,-131.74,4179.73,-1506.91,4938.39,20826.42,9222.6,4374.5,9293.54,9264.8,-856.92,63.75,24548.25,-2212.55,-5228.34,-3704.09,507.03,11974.77,719.41
0.082,-9880.54,-2244.88,681.68,3547.4,-136.52,4174.41,-1511.07,4942.1,20830.84,9226.71,4374.46,9292.69,9266.77,-851.91,60.26,24555.58,-2220.02,-5234.02,-3702.39,516.01,11998.15,717.71
0.084,-9880.01,-2241.92,682.76,3549.19,-134.51,4177.63,-1505.84,4943.71,20834.15,9233.37,4371.78,9293.5,9269.22,-853.43,58.2,24556.25,-2218.14,-5234.64,-3704.09,522.18,12001.86,711.41
0.086,-9873.84,-2231.51,701.0,3562.47,-108.67,4205.08,-1478.3,4952.16,20844.83,9246.51,4375.49,9300.61,9275.21,-850.89,68.08,24547.31,-2160.25,-5209.34,-3708.47,545.56,12005.66,709.85
0.088,-9869.37,-2224.4,721.78,3573.46,-81.0,4238.7,-1449.15,4959.58,20855.92,9255.05,4382.73,9311.2,9279.01,-849.9,81.05,24531.31,-2089.31,-5184.17,-3716.69,558.48,11993.72,706.81
0.090,-9874.11,-2225.83,731.35,3578.74,-62.9,4265.92,-1428.54,4964.19,20866.61,9263.01,4390.24,9326.67,9286.3,-849.46,99.15,24523.93,-2024.26,-5147.03,-3714.82,576.94,11981.97,711.37
0.092,-9887.61,-2242.64,719.9,3565.64,-75.28,4257.96,-1437.4,4957.75,20861.82,9250.76,4390.87,9326.94,9279.91,-851.07,99.64,24516.24,-2013.36,-5148.46,-3715.35,565.45,11974.1,712.53
0.094,-9893.51,-2253.15,698.0,3549.1,-109.57,4218.98,-1473.7,4941.61,20843.63,9233.06,4380.45,9311.42,9269.85,-859.16,79.53,24524.33,-2109.87,-5188.11,-3720.0,539.48,11976.29,707.25
0.096,-9894.04,-2257.93,680.34,3538.46,-137.33,4182.73,-1505.26,4930.3,20830.8,9222.15,4370.35,9294.53,9262.07,-863.54,58.7,24535.64,-2199.59,-5230.84,-3722.68,506.85,11978.08,701.13
0.098,-9893.15,-2254.93,674.89,3538.28,-143.54,4170.7,-1514.2,4932.99,20832.94,9226.76,4368.51,9290.73,9265.65,-859.6,53.96,24549.41,-2229.9,-5240.05,-3716.16,511.5,11997.21,710.16
0.100,-9889.26,-2248.45,678.46,3544.72,-137.6,4176.56,-1507.04,4937.99,20839.92,9235.11,4369.72,9293.59,9272.13,-855.54,57.13,24556.34,-2218.68,-5234.96,-3708.6,520.89,12006.37,720.44
0.102,-9879.43,-2234.86,698.31,3562.15,-109.21,4205.75,-1476.69,4951.05,20853.42,9250.0,4376.87,9302.57,9279.73,-849.37,69.65,24552.99,-2158.6,-5207.69,-3703.42,537.6,12008.43,728.94
0.104,-9873.26,-2224.18,718.07,3574.36,-83.15,4235.52,-1447.72,4958.56,20860.26,9258.49,4382.33,9309.99,9282.63,-848.56,80.06,24539.76,-2095.48,-5184.98,-3707.31,550.26,11989.79,719.68
0.106,-9874.87,-2221.41,725.45,3577.62,-74.25,4254.03,-1434.4,4957.48,20859.05,9260.55,4385.1,9318.4,9284.96,-852.99,89.41,24531.08,-2057.88,-5164.55,-3709.9,572.79,11983.22,717.98
0.108,-9885.19,-2231.33,721.02,3573.06,-75.19,4259.3,-1432.34,4956.81,20858.69,9256.13,4389.84,9323.23,9284.83,-851.02,100.63,24524.51,-2014.52,-5144.79,-3706.23,586.11,11991.98,730.77
0.110,-9893.6,-2242.64,698.89,3556.74,-108.23,4222.74,-1465.16,4941.17,20839.02,9238.91,4382.42,9309.95,9273.74,-857.06,84.98,24527.95,-2091.27,-5178.27,-3712.31,566.08,11989.79,720.08
0.112,-9899.59,-2250.69,681.24,3545.84,-131.88,4190.86,-1490.01,4931.42,20826.46,9226.4,4373.39,9294.08,9264.57,-859.6,67.01,24532.25,-2152.88,-5209.79,-3718.97,533.67,11974.32,707.03
0.114,-9905.22,-2256.41,667.24,3539.31,-149.58,4167.66,-1508.47,4927.0,20821.01,9222.55,4365.12,9282.23,9262.92,-860.94,52.66,24543.02,-2208.89,-5236.21,-3717.9,494.82,11960.82,696.7
0.116,-9909.38,-2260.07,662.33,3536.45,-153.33,4162.92,-1511.74,4929.14,20823.47,9224.88,4364.54,9281.83,9265.25,-857.95,52.03,24549.68,-2213.98,-5239.29,-3710.7,499.92,11981.03,704.66
0.118,-9899.99,-2249.48,673.23,3543.38,-138.22,4173.79,-1500.34,4934.42,20825.97,9231.63,4364.54,9282.72,9267.61,-859.07,54.54,24547.49,-2196.91,-5229.59,-3711.1,532.51,12014.6,718.34
0.120,-9884.52,-2237.05,695.99,3555.45,-108.05,4201.06,-1475.71,4945.14,20831.87,9239.36,4370.97,9289.65,9269.98,-858.66,63.75,24535.02,-2138.75,-5206.66,-3716.69,551.73,12005.17,717.67
0.122,-9873.84,-2226.95,721.65,3569.57,-74.7,4239.72,-1444.86,4959.27,20845.46,9251.57,4385.68,9308.12,9279.15,-850.98,86.55,24527.2,-2050.95,-5166.34,-3713.16,580.56,11998.24,721.78
0.124,-9876.48,-2231.02,724.69,3569.04,-69.83,4252.2,-1437.71,4961.33,20848.5,9253.71,4393.55,9320.77,9285.05,-848.56,100.63,24524.47,-2015.19,-5146.0,-3711.33,585.35,11985.72,720.98
0.126,-9886.71,-2246.22,707.08,3552.81,-92.4,4226.54,-1462.47,4949.93,20834.2,9238.83,4388.05,9313.57,9277.27,-854.46,91.33,24523.89,-2062.04,-5166.7,-3716.74,562.64,11976.11,713.42
0.128,-9895.16,-2257.93,688.57,3538.77,-117.61,4194.57,-1491.13,4939.6,20820.56,9226.13,4379.73,9299.35,9268.73,-858.44,75.15,24530.82,-2131.95,-5195.62,-3719.82,540.96,11984.92,712.26
0.130,-9903.12,-2267.94,666.48,3524.24,-148.15,4156.98,-1522.96,4926.41,20805.05,9211.56,4366.23,9280.27,9256.93,-866.17,50.83,24538.01,-2218.68,-5240.37,-3723.8,507.03,11986.97,704.8
0.132,-9904.01,-2267.18,662.01,3524.24,-150.83,4150.99,-1526.27,4930.71,20809.65,9215.58,4364.45,9278.08,9258.67,-861.48,48.95,24545.93,-2227.57,-5241.35,-3718.26,511.63,12002.13,713.24
0.134,-9901.24,-2261.06,668.0,3530.37,-142.11,4160.82,-1515.54,4935.71,20816.76,9222.51,4366.77,9281.74,9261.94,-857.95,53.6,24546.69,-2205.85,-5233.39,-3714.68,522.67,12007.89,717.67
0.136,-9891.63,-2246.93,687.32,3545.75,-119.45,4188.18,-1490.28,4945.73,20828.52,9234.62,4372.76,9292.69,9268.73,-854.37,65.62,24543.24,-2159.04,-5211.04,-3711.69,539.75,12001.99,718.56
0.138,-9878.26,-2228.69,714.5,3565.82,-86.32,4226.94,-1455.95,4960.3,20845.64,9250.85,4385.77,9310.75,9280.71,-846.82,87.13,24540.16,-2088.19,-5174.03,-3705.25,568.58,11999.22,727.37
0.140,-9876.52,-2225.83,726.61,3572.75,-68.71,4254.74,-1435.52,4966.65,20855.88,9258.18,4396.01,9327.7,9287.15,-842.93,106.84,24533.05,-2024.26,-5142.29,-3702.61,585.08,11987.06,730.63
0.142,-9884.66,-2239.47,716.19,3562.69,-80.91,4245.18,-1446.78,4959.45,20848.99,9246.83,4395.07,9325.73,9280.94,-845.39,106.35,24528.31,-2030.12,-5144.92,-3705.07,577.7,11980.49,727.28
0.144,-9892.93,-2251.76,692.59,3544.49,-115.87,4205.84,-1484.38,4940.5,20829.01,9227.38,4381.7,9307.13,9268.15,-856.65,83.37,24532.11,-2124.8,-5187.88,-3712.94,550.12,11981.12,718.07
0.146,-9897.04,-2256.01,680.03,3538.1,-132.14,4181.79,-1503.11,4935.8,20822.8,9219.16,4372.85,9292.56,9261.0,-858.4,66.83,24536.23,-2174.11,-5213.28,-3716.34,524.77,11988.85,715.66
0.148,-9903.88,-2260.92,663.31,3528.71,-155.26,4156.49,-1525.37,4924.58,20813.63,9210.53,4360.87,9278.12,9252.46,-865.91,47.92,24539.53,-2235.89,-5247.25,-3722.06,503.27,11987.51,705.38
0.150,-9902.54,-2256.5,664.79,3532.51,-150.25,4159.66,-1520.46,4928.34,20818.15,9216.74,4358.19,9276.24,9254.74,-865.77,46.98,24541.41,-2228.33,-5242.6,-3721.21,506.71,11991.85,706.94
0.152,-9891.76,-2241.97,682.71,3547.18,-126.78,4184.87,-1494.84,4937.86,20828.74,9228.99,4363.42,9283.66,9262.25,-861.7,56.28,24538.01,-2182.02,-5222.8,-3718.26,520.39,11989.52,709.4
0.154,-9879.65,-2227.66,709.49,3565.64,-90.79,4223.94,-1458.5,4953.41,20845.01,9244.73,4375.94,9298.15,9272.04,-855.04,75.82,24531.31,-2100.26,-5185.2,-3712.76,549.32,11988.54,719.06
0.156,-9874.02,-2220.42,728.04,3576.95,-69.11,4254.52,-1434.98,4962.36,20855.21,9254.7,4389.03,9315.94,9281.38,-850.53,94.91,24526.7,-2041.83,-5156.41,-3708.51,574.44,11982.5,724.46
0.158,-9878.4,-2228.38,724.91,3572.3,-71.88,4256.71,-1437.17,4963.25,20854.98,9252.77,4396.1,9324.48,9284.83,-846.73,104.96,24526.39,-2025.69,-5142.96,-3705.96,582.31,11982.1,730.28
0.160,-9883.99,-2236.47,710.74,3561.12,-91.24,4233.15,-1459.35,4956.41,20843.9,9241.73,4393.41,9316.61,9279.86,-847.49,95.84,24530.68,-2072.32,-5163.03,-3706.86,565.63,11985.85,730.19
0.162,-9886.13,-2239.47,695.5,3550.49,-118.06,4199.49,-1487.6,4946.4,20831.24,9230.24,4385.59,9303.38,9273.11,-850.39,78.1,24542.26,-2157.17,-5201.3,-3708.65,536.26,11990.77,724.46
0.164,-9886.0,-2239.6,683.56,3546.24,-134.16,4175.8,-1505.97,4942.91,20826.24,9226.76,4377.95,9291.62,9270.34,-852.32,63.88,24553.26,-2217.34,-5226.24,-3708.87,516.19,11997.34,719.64
0.166,-9886.31,-2237.95,679.22,3546.46,-137.37,4172.49,-1506.11,4942.82,20827.22,9230.29,4374.91,9288.76,9269.89,-852.76,59.77,24554.91,-2222.12,-5232.19,-3709.67,511.23,11996.67,715.3
0.168,-9879.34,-2226.55,693.71,3560.68,-117.08,4195.11,-1482.46,4952.88,20838.13,9244.59,4379.29,9297.34,9277.27,-848.43,69.25,24552.63,-2177.6,-5212.16,-3707.93,527.9,12001.68,722.41
0.170,-9876.65,-2220.24,709.04,3570.42,-94.68,4220.95,-1459.21,4958.51,20844.61,9251.3,4383.22,9303.91,9280.35,-847.13,78.95,24542.17,-2123.46,-5190.12,-3709.72,547.66,11995.42,723.93
0.172,-9873.84,-2216.04,728.22,3579.45,-68.13,4253.13,-1432.79,4966.29,20853.55,9258.9,4392.48,9316.7,9284.74,-844.09,96.34,24529.83,-2048.27,-5156.28,-3710.12,575.96,11987.2,727.82
0.174,-9874.73,-2219.8,728.94,3575.88,-70.1,4259.04,-1433.77,4965.35,20852.21,9258.18,4398.82,9327.74,9287.51,-843.64,106.98,24528.18,-2031.59,-5143.49,-3708.6,590.44,11978.66,727.24
0.176,-9877.19,-2228.56,724.55,3570.38,-73.36,4251.26,-1441.29,4967.81,20851.67,9251.83,4402.49,9327.29,9284.96,-838.77,109.93,24528.54,-2024.89,-5138.49,-3705.96,586.42,11987.82,736.22
0.178,-9882.42,-2238.84,701.62,3553.75,-108.94,4210.0,-1478.93,4951.27,20832.36,9231.72,4390.82,9309.46,9271.28,-845.83,86.28,24533.59,-2120.15,-5187.21,-3712.04,557.63,11990.5,728.09
0.180,-9883.76,-2242.06,687.72,3547.62,-128.79,4182.73,-1501.37,4945.23,20825.61,9224.97,4383.22,9296.27,9267.44,-845.79,72.02,24546.82,-2182.96,-5211.8,-3709.0,543.33,12010.58,734.66
0.182,-9881.93,-2238.04,684.41,3550.84,-131.79,4179.69,-1501.86,4948.5,20832.54,9232.79,4384.56,9297.88,9273.07,-839.8,72.64,24559.38,-2194.85,-5217.08,-3699.62,530.45,12010.17,742.66
0.184,-9874.82,-2225.83,689.51,3558.98,-129.37,4184.38,-1497.08,4952.48,20838.53,9243.47,4386.84,9305.12,9281.52,-833.94,77.96,24570.92,-2202.14,-5214.3,-3691.35,534.25,11992.2,741.18
0.186,-9864.81,-2210.68,717.85,3580.21,-88.24,4226.98,-1457.38,4972.95,20861.29,9263.86,4400.92,9321.88,9295.11,-820.31,102.33,24569.17,-2102.45,-5167.32,-3681.15,575.02,12016.21,758.66
0.188,-9865.43,-2208.62,733.94,3586.47,-65.8,4257.43,-1432.66,4975.45,20867.37,9266.77,4402.22,9327.34,9294.21,-826.75,108.9,24548.65,-2037.23,-5146.53,-3690.9,584.32,11995.29,745.65
0.190,-9873.08,-2215.86,736.09,3582.85,-59.5,4274.46,-1423.22,4970.27,20866.52,9262.92,4399.32,9329.57,9288.63,-840.2,109.93,24527.87,-1998.47,-5133.93,-3704.22,578.64,11954.92,731.48
0.192,-9877.95,-2222.7,721.78,3572.3,-81.63,4255.68,-1444.19,4955.74,20853.02,9250.05,4392.7,9323.99,9282.68,-852.05,100.05,24527.42,-2050.68,-5153.46,-3709.45,584.23,11967.75,732.15
0.194,-9885.68,-2234.15,703.99,3559.2,-105.01,4226.31,-1469.0,4943.8,20839.38,9236.23,4381.66,9308.07,9273.78,-859.74,84.44,24530.73,-2110.0,-5178.32,-3711.55,581.37,12000.61,741.09
0.196,-9893.15,-2243.0,685.8,3547.22,-130.85,4193.23,-1495.47,4933.66,20826.6,9223.98,4370.57,9290.5,9265.07,-863.36,65.85,24539.31,-2184.03,-5213.95,-3713.38,554.46,12004.36,731.8
0.198,-9892.93,-2243.85,677.21,3544.0,-140.86,4179.24,-1507.31,4932.9,20824.18,9221.75,4366.23,9281.61,9262.38,-862.55,54.67,24545.26,-2218.23,-5233.93,-3715.93,521.65,11989.12,714.85
0.200,-9889.89,-2238.39,679.9,3547.94,-135.81,4182.15,-1502.98,4934.77,20826.73,9226.71,4361.67,9277.58,9262.83,-867.69,48.64,24544.58,-2221.63,-5238.0,-3718.62,527.59,12017.15,720.44
0.202,-9886.71,-2231.78,687.99,3554.78,-126.6,4193.72,-1491.13,4934.01,20827.18,9230.87,4357.52,9277.23,9263.5,-876.95,44.88,24538.64,-2221.54,-5240.19,-3723.85,544.4,12033.51,723.66
0.204,-9874.64,-2215.68,715.39,3574.94,-89.18,4232.71,-1454.38,4951.49,20844.97,9249.96,4371.46,9294.93,9276.11,-866.44,67.1,24534.57,-2141.16,-5197.27,-3718.75,566.44,12018.67,726.79
0.206,-9872.05,-2209.56,732.65,3584.55,-65.85,4265.16,-1427.96,4960.79,20856.01,9260.42,4385.1,9314.2,9286.03,-858.22,90.48,24529.43,-2062.98,-5159.63,-3711.86,595.18,12011.34,732.24
0.208,-9879.43,-2216.26,728.13,3579.77,-69.34,4266.99,-1428.68,4958.47,20853.37,9255.9,4389.35,9320.36,9284.96,-857.06,99.06,24524.02,-2034.9,-5146.13,-3712.98,597.28,11992.56,727.95
0.210,-9883.67,-2224.8,714.5,3569.17,-89.32,4241.29,-1451.7,4951.0,20841.62,9243.12,4386.66,9312.68,9278.25,-857.77,89.32,24527.87,-2082.47,-5168.22,-3714.5,574.48,11986.35,722.68
0.212,-9886.0,-2232.09,696.66,3557.73,-115.92,4206.87,-1483.75,4942.28,20827.18,9228.14,4378.89,9297.34,9268.37,-859.47,70.59,24535.87,-2159.4,-5204.96,-3717.59,549.76,11987.55,714.54
0.214,-9888.5,-2237.59,683.07,3549.86,-131.2,4183.93,-1502.98,4939.11,20820.25,9220.59,4371.78,9284.65,9261.62,-861.08,55.57,24540.16,-2204.55,-5228.39,-3721.21,531.12,11999.13,713.38
0.216,-9888.68,-2238.53,677.3,3546.06,-137.06,4175.57,-1509.73,4937.63,20820.65,9221.48,4368.6,9281.11,9260.82,-862.33,48.77,24542.17,-2226.55,-5241.39,-3723.8,512.12,11994.75,706.09
0.218,-9881.53,-2229.72,687.36,3555.0,-123.74,4189.12,-1494.8,4944.79,20828.52,9233.46,4372.85,9287.87,9269.09,-857.5,55.92,24546.37,-2204.15,-5227.27,-3719.2,539.44,12008.16,714.63
0.220,-9876.7,-2222.93,703.45,3564.39,-102.01,4213.48,-1471.33,4949.7,20834.91,9241.91,4375.18,9293.23,9272.4,-861.35,63.84,24536.4,-2153.55,-5207.69,-3721.21,553.25,12009.37,720.71
0.222,-9875.31,-2219.57,721.11,3574.31,-75.41,4248.08,-1441.96,4957.08,20845.19,9251.61,4380.99,9305.79,9276.91,-861.75,80.24,24524.07,-2077.82,-5172.01,-3721.25,574.35,12007.76,725.36
0.224,-9884.88,-2227.13,716.46,3568.55,-81.05,4253.18,-1442.72,4951.05,20841.62,9247.32,4382.42,9312.05,9275.88,-866.04,87.26,24516.24,-2056.76,-5162.45,-3724.87,575.6,11984.56,714.94
0.226,-9892.52,-2234.01,703.32,3558.58,-99.55,4233.47,-1461.98,4941.7,20832.09,9236.14,4377.63,9305.08,9269.85,-870.65,80.15,24516.02,-2091.45,-5176.49,-3727.6,554.14,11968.29,709.76
0.228,-9904.19,-2246.89,682.53,3543.56,-126.6,4201.73,-1489.7,4928.16,20818.59,9220.54,4364.85,9288.98,9259.84,-877.4,62.76,24519.6,-2155.51,-5207.33,-3729.34,534.83,11976.2,710.7
0.230,-9903.92,-2248.14,669.12,3538.33,-148.24,4174.68,-1511.16,4921.76,20811.75,9215.58,4357.83,9278.48,9257.15,-876.5,48.91,24534.53,-2225.16,-5236.75,-3725.5,517.13,11988.89,712.48
0.232,-9899.1,-2243.0,668.36,3543.11,-149.35,4171.95,-1511.38,4927.35,20817.88,9222.64,4360.11,9280.22,9262.03,-869.21,49.49,24546.06,-2233.88,-5239.61,-3719.29,511.45,11994.3,712.08
0.234,-9890.78,-2230.44,679.76,3555.36,-134.42,4187.11,-1494.66,4935.53,20828.56,9235.25,4363.46,9284.83,9268.73,-864.65,55.16,24548.61,-2207.91,-5228.25,-3716.42,521.2,11995.29,711.59
0.236,-9884.84,-2220.2,693.17,3564.92,-118.55,4205.21,-1477.41,4937.86,20831.29,9241.37,4362.97,9287.87,9270.97,-869.08,58.38,24542.04,-2185.2,-5220.52,-3719.87,529.87,11988.94,711.46
0.238,-9880.63,-2213.09,714.67,3576.86,-87.84,4238.92,-1447.45,4948.05,20842.29,9251.34,4368.69,9299.22,9276.78,-868.99,73.54,24531.26,-2110.41,-5184.0,-3718.08,566.04,11992.87,721.65
0.240,-9880.32,-2213.4,726.61,3581.51,-70.59,4264.85,-1428.63,4954.53,20850.69,9254.65,4377.1,9313.12,9280.35,-867.87,90.12,24520.44,-2047.91,-5155.39,-3718.62,585.79,11990.01,723.79
0.242,-9884.48,-2222.21,721.83,3574.58,-77.16,4258.36,-1437.4,4952.52,20845.82,9246.07,4380.76,9314.11,9276.56,-866.62,92.67,24518.12,-2048.72,-5153.73,-3718.75,576.81,11985.27,728.26
0.244,-9888.01,-2232.54,704.93,3560.45,-104.43,4224.88,-1468.78,4940.54,20831.02,9230.42,4373.88,9301.45,9267.3,-871.32,75.37,24523.35,-2126.14,-5189.9,-3721.88,550.93,11978.93,721.38
0.246,-9892.75,-2238.93,685.3,3550.04,-132.9,4189.03,-1499.85,4928.69,20817.7,9219.29,4362.03,9284.02,9259.39,-877.93,53.55,24532.78,-2215.64,-5231.16,-3725.99,511.81,11973.78,710.03
0.248,-9893.51,-2239.64,675.07,3547.53,-144.26,4172.8,-1512.14,4927.04,20816.31,9220.81,4357.34,9277.4,9260.24,-877.17,44.44,24543.96,-2254.58,-5246.4,-3724.2,502.06,11993.05,713.6
0.250,-9892.97,-2238.84,676.5,3550.26,-138.67,4176.83,-1506.33,4930.66,20820.69,9226.49,4357.56,9279.01,9263.01,-873.01,47.34,24544.41,-2235.35,-5240.28,-3722.86,507.56,11998.68,710.7
0.252,-9888.46,-2230.39,688.52,3557.73,-124.68,4193.41,-1490.15,4934.1,20824.41,9233.86,4359.66,9282.81,9264.93,-871.41,52.44,24537.79,-2204.51,-5228.03,-3727.87,521.29,11994.35,704.21
0.254,-9877.19,-2215.24,715.3,3576.01,-89.68,4231.27,-1454.56,4949.7,20840.68,9249.87,4373.48,9297.3,9274.32,-861.7,72.6,24530.01,-2121.58,-5188.96,-3727.11,546.14,11982.68,707.3
0.256,-9873.57,-2210.5,733.27,3586.07,-65.13,4265.03,-1426.71,4961.28,20854.04,9261.45,4388.68,9317.59,9284.2,-852.99,95.22,24523.35,-2043.71,-5151.59,-3723.49,574.62,11969.49,714.67
0.258,-9884.21,-2222.48,724.02,3575.52,-74.07,4261.45,-1432.39,4956.86,20850.24,9255.32,4393.37,9324.39,9283.53,-851.11,102.19,24520.0,-2029.99,-5143.76,-3722.55,582.89,11972.35,719.73
0.260,-9893.15,-2236.11,704.66,3558.35,-99.87,4229.98,-1460.64,4943.54,20834.87,9238.83,4385.37,9311.78,9272.08,-857.23,87.53,24519.37,-2085.91,-5170.41,-3728.41,560.72,11986.03,719.55
0.262,-9895.83,-2243.36,686.96,3546.51,-126.47,4195.82,-1490.19,4932.27,20820.69,9225.37,4373.74,9294.17,9262.21,-864.3,64.91,24524.74,-2171.43,-5211.8,-3734.66,524.91,11981.52,707.84
0.264,-9896.91,-2246.22,671.27,3538.42,-148.46,4167.75,-1516.3,4923.69,20810.73,9215.89,4362.26,9277.27,9254.47,-871.54,42.96,24530.99,-2248.67,-5249.17,-3741.64,498.44,11974.14,694.65
0.266,-9890.65,-2237.23,676.05,3546.82,-139.88,4174.32,-1508.65,4933.3,20820.52,9225.15,4366.23,9280.04,9259.75,-866.17,46.54,24536.81,-2236.34,-5242.83,-3736.81,505.33,11989.52,703.81
0.268,-9873.61,-2215.73,697.73,3568.41,-116.14,4199.27,-1483.22,4948.86,20838.13,9243.74,4378.75,9294.7,9273.25,-853.61,61.02,24546.02,-2206.07,-5225.12,-3725.37,527.32,12004.41,718.74
0.270,-9857.75,-2196.15,727.95,3591.43,-78.23,4239.59,-1445.0,4968.57,20859.23,9263.41,4392.88,9311.78,9285.94,-842.39,81.72,24545.52,-2131.42,-5185.56,-3717.05,556.96,12007.89,731.75
0.272,-9850.15,-2184.53,752.54,3607.08,-47.03,4279.91,-1412.67,4981.31,20875.23,9274.68,4406.42,9329.13,9293.9,-835.82,101.88,24536.09,-2048.58,-5150.02,-3714.14,584.41,11998.91,734.3
0.274,-9854.84,-2187.83,754.86,3605.47,-43.68,4291.04,-1408.65,4980.42,20876.31,9272.67,4410.18,9337.53,9294.88,-838.95,110.6,24528.49,-2018.5,-5135.05,-3715.89,587.98,11984.38,729.07
0.276,-9860.7,-2198.61,741.01,3592.77,-64.42,4267.26,-1432.34,4969.55,20863.52,9258.23,4404.23,9328.63,9286.39,-845.57,99.78,24528.63,-2068.88,-5155.74,-3718.62,575.92,11987.2,728.8
0.278,-9863.47,-2206.16,726.25,3581.91,-87.89,4236.01,-1460.42,4959.23,20849.84,9245.17,4394.93,9313.26,9276.6,-850.53,80.96,24533.86,-2143.35,-5190.48,-3723.85,547.89,11987.33,721.56
0.280,-9866.37,-2213.72,710.25,3571.41,-108.85,4207.4,-1485.41,4951.72,20839.47,9233.68,4384.61,9296.58,9267.44,-853.21,61.96,24540.16,-2207.1,-5223.38,-3726.66,522.18,11993.45,718.34
0.282,-9867.58,-2216.71,703.45,3567.83,-113.1,4199.09,-1492.92,4954.13,20840.54,9232.75,4382.46,9292.16,9265.87,-849.32,59.05,24544.63,-2213.76,-5228.65,-3724.47,518.29,11997.03,717.67
0.284,-9867.45,-2215.37,705.56,3568.95,-108.9,4202.35,-1488.89,4954.62,20840.14,9236.23,4380.41,9291.22,9266.63,-850.26,58.92,24542.84,-2203.75,-5227.22,-3725.23,516.01,11987.55,711.81
0.286,-9863.78,-2207.99,715.43,3575.07,-97.99,4214.91,-1475.71,4954.09,20839.47,9242.45,4378.13,9293.18,9270.07,-856.12,60.57,24538.59,-2190.16,-5219.62,-3729.12,530.0,11979.73,707.08
0.288,-9859.0,-2199.23,738.1,3588.53,-64.46,4251.48,-1442.0,4967.99,20852.08,9256.26,4388.01,9307.49,9280.18,-852.32,80.87,24530.37,-2104.15,-5178.09,-3724.65,562.28,11989.25,723.93
0.290,-9863.11,-2200.75,746.5,3591.52,-49.22,4276.02,-1423.58,4973.62,20859.01,9261.31,4396.23,9321.97,9286.39,-848.61,100.36,24523.17,-2032.71,-5142.87,-3719.15,581.86,11992.69,743.33
0.292,-9874.69,-2213.9,734.43,3579.81,-61.91,4265.29,-1434.31,4967.09,20851.67,9250.63,4398.11,9322.51,9282.14,-847.67,103.22,24521.16,-2028.91,-5141.88,-3716.51,574.93,11990.06,752.18
0.294,-9884.25,-2226.01,710.47,3562.82,-97.05,4227.3,-1468.02,4950.2,20833.84,9234.36,4388.23,9308.29,9273.02,-855.13,85.29,24528.76,-2113.09,-5179.93,-3718.75,544.89,11978.57,740.65
0.296,-9895.83,-2238.57,684.9,3546.01,-132.28,4186.3,-1502.08,4933.88,20816.09,9219.6,4372.94,9287.69,9262.16,-864.3,60.35,24535.69,-2202.85,-5222.53,-3725.01,512.79,11974.37,717.71
0.298,-9899.23,-2243.27,675.25,3540.96,-140.86,4174.59,-1511.69,4934.64,20817.25,9220.23,4369.27,9282.19,9260.91,-859.96,55.3,24542.71,-2220.69,-5229.77,-3722.55,517.93,11991.67,710.61
0.300,-9893.69,-2238.12,677.7,3544.72,-139.07,4176.24,-1509.82,4940.81,20821.95,9225.41,4373.43,9285.99,9263.59,-852.67,57.94,24546.51,-2217.56,-5230.62,-3722.73,527.46,12003.96,707.7
0.302,-9878.85,-2220.82,701.31,3563.49,-107.91,4206.96,-1481.12,4958.65,20840.23,9243.25,4387.6,9301.37,9274.99,-838.82,76.93,24548.07,-2153.28,-5198.39,-3716.6,551.1,12008.3,719.1
0.304,-9868.03,-2209.29,727.1,3579.81,-73.4,4245.45,-1448.35,4973.84,20858.2,9256.66,4401.86,9318.17,9284.51,-828.8,97.14,24541.32,-2070.26,-5162.18,-3710.48,586.11,12016.88,737.29
0.306,-9871.11,-2209.43,735.73,3581.73,-61.11,4267.08,-1433.15,4971.83,20860.88,9257.42,4401.64,9326.22,9285.27,-839.8,104.65,24527.87,-2032.0,-5144.39,-3714.37,603.94,12006.82,742.3
0.308,-9878.09,-2217.61,729.61,3574.89,-69.92,4263.95,-1439.77,4964.99,20855.92,9251.57,4399.81,9328.77,9283.17,-848.29,106.13,24524.83,-2043.49,-5142.33,-3715.84,587.36,11978.03,737.56
0.310,-9886.36,-2228.42,714.99,3562.87,-87.08,4241.74,-1458.36,4956.54,20845.06,9237.22,4392.03,9315.63,9272.22,-854.78,92.0,24520.27,-2083.67,-5163.88,-3724.52,550.21,11967.3,722.18
0.312,-9889.57,-2235.31,695.5,3549.95,-118.96,4204.09,-1491.76,4942.37,20828.43,9220.45,4379.78,9296.58,9259.34,-862.6,67.55,24524.6,-2174.06,-5211.18,-3732.34,526.34,11991.31,713.83
0.314,-9890.07,-2238.71,681.82,3542.75,-135.99,4179.2,-1512.18,4936.11,20819.85,9215.31,4367.93,9281.07,9253.04,-869.89,47.88,24531.35,-2239.38,-5240.46,-3737.03,503.63,12002.26,708.06
0.316,-9890.07,-2236.25,678.6,3543.56,-138.63,4174.32,-1513.57,4937.23,20822.3,9220.18,4365.79,9278.83,9255.99,-868.45,45.11,24537.57,-2248.27,-5244.3,-3733.81,508.55,12008.52,713.47
0.318,-9884.08,-2225.38,690.27,3553.97,-123.29,4190.77,-1495.42,4943.49,20829.1,9231.09,4367.13,9282.5,9261.53,-865.68,50.69,24536.4,-2215.42,-5231.87,-3732.7,522.45,12004.63,719.23
0.320,-9878.4,-2214.43,711.86,3569.62,-93.07,4223.41,-1462.7,4956.86,20841.35,9246.07,4375.98,9293.59,9269.89,-860.05,66.74,24531.8,-2143.17,-5199.24,-3726.57,546.01,12002.08,728.58
0.322,-9875.05,-2207.86,730.99,3580.44,-66.56,4257.11,-1433.69,4966.02,20851.54,9255.46,4385.14,9307.85,9277.9,-857.14,84.18,24522.41,-2068.25,-5167.32,-3723.13,566.12,11988.31,729.29
0.324,-9879.69,-2211.35,730.59,3577.66,-65.22,4265.38,-1430.47,4962.67,20849.57,9253.89,4389.35,9315.67,9280.22,-858.71,93.83,24517.32,-2042.46,-5150.69,-3723.67,574.93,11976.51,724.96
0.326,-9888.59,-2224.22,714.9,3563.4,-85.83,4242.85,-1453.31,4952.43,20835.04,9238.24,4385.1,9307.09,9270.21,-863.45,84.4,24513.61,-2078.98,-5169.11,-3731.49,557.59,11973.43,717.04
0.328,-9894.89,-2235.04,695.54,3548.25,-114.22,4208.12,-1484.65,4940.54,20819.89,9222.64,4375.94,9291.31,9259.79,-869.3,65.13,24519.15,-2154.98,-5204.34,-3738.11,534.12,11979.28,709.31
0.330,-9899.95,-2244.74,679.18,3536.85,-136.66,4178.48,-1510.89,4933.07,20810.55,9212.32,4367.58,9277.81,9251.61,-871.45,47.7,24526.12,-2218.77,-5236.75,-3740.97,507.07,11983.49,695.85
0.332,-9905.0,-2250.46,665.99,3529.52,-149.26,4163.82,-1523.99,4929.05,20808.04,9210.75,4360.51,9271.5,9248.75,-873.01,39.61,24530.01,-2246.48,-5250.6,-3743.2,500.46,11987.42,689.37
0.334,-9899.63,-2242.06,675.02,3539.31,-135.68,4177.27,-1508.61,4936.7,20817.48,9221.57,4362.26,9277.14,9255.41,-868.63,47.48,24532.11,-2216.98,-5235.18,-3740.52,514.13,11995.82,695.09
0.336,-9892.61,-2231.82,688.79,3548.97,-120.97,4196.23,-1491.35,4938.31,20822.3,9230.11,4363.91,9284.65,9259.43,-869.89,54.36,24528.22,-2188.86,-5224.59,-3740.88,526.79,11989.07,696.39
0.338,-9885.6,-2221.72,711.63,3562.6,-89.9,4230.78,-1461.18,4947.74,20834.6,9242.58,4370.57,9297.66,9267.93,-867.87,72.6,24520.76,-2111.57,-5184.13,-3737.21,556.38,11987.11,705.87
0.340,-9884.34,-2219.93,724.46,3568.77,-72.91,4257.69,-1439.94,4955.29,20845.95,9249.15,4381.88,9315.67,9276.29,-862.6,94.5,24515.48,-2040.22,-5149.98,-3730.91,578.51,11982.05,715.66
0.342,-9898.56,-2236.56,708.73,3554.2,-89.94,4243.08,-1457.87,4945.68,20835.45,9234.67,4378.97,9312.54,9267.52,-866.4,93.3,24509.72,-2049.52,-5153.55,-3733.9,572.12,11979.46,718.12
0.344,-9910.99,-2251.8,684.59,3535.06,-122.98,4205.79,-1492.74,4929.86,20818.33,9214.69,4367.93,9295.38,9254.34,-875.03,73.22,24511.06,-2125.87,-5191.91,-3741.5,541.67,11975.04,708.46
0.346,-9911.66,-2252.83,670.37,3529.52,-145.47,4176.65,-1514.73,4923.87,20812.65,9208.02,4362.21,9283.62,9251.16,-875.7,56.51,24523.26,-2203.75,-5224.81,-3742.53,515.7,11982.32,704.12
0.348,-9902.4,-2245.19,670.73,3535.91,-148.5,4171.68,-1517.86,4930.75,20820.78,9216.92,4366.06,9285.32,9258.05,-866.89,54.94,24538.82,-2233.65,-5234.2,-3734.75,510.56,11995.02,706.9
0.350,-9894.22,-2236.2,675.87,3544.99,-141.67,4178.97,-1509.77,4937.32,20828.34,9228.54,4370.3,9290.55,9266.18,-861.48,59.05,24548.43,-2231.33,-5230.4,-3728.0,517.17,12001.28,711.05
0.352,-9887.92,-2224.98,691.83,3557.32,-119.09,4203.2,-1483.89,4945.46,20838.71,9240.97,4373.25,9296.67,9273.02,-859.34,67.82,24545.39,-2181.35,-5209.16,-3724.56,534.39,11997.61,713.6
0.354,-9877.73,-2211.71,720.98,3576.1,-80.82,4245.31,-1444.77,4962.04,20857.62,9257.33,4386.17,9312.9,9283.04,-849.99,90.17,24536.18,-2087.56,-5167.23,-3720.18,565.81,11998.15,724.69
0.356,-9872.63,-2203.35,736.67,3586.7,-63.75,4273.52,-1424.88,4967.63,20868.04,9266.72,4396.99,9330.2,9291.75,-845.61,108.54,24531.75,-2036.96,-5140.23,-3718.08,592.28,11997.57,729.96
0.358,-9875.63,-2205.27,738.99,3588.57,-59.01,4283.49,-1418.89,4972.91,20873.89,9267.26,4405.89,9341.2,9294.48,-839.49,122.13,24528.49,-1998.83,-5118.59,-3714.5,607.61,12005.43,742.97
0.360,-9876.34,-2208.98,726.07,3578.92,-83.77,4255.82,-1446.69,4962.27,20860.7,9252.55,4400.12,9329.89,9285.59,-846.95,105.23,24531.89,-2078.53,-5154.36,-3720.72,573.01,11986.44,735.91
0.362,-9878.4,-2214.57,706.99,3566.62,-113.64,4218.13,-1480.76,4947.74,20843.76,9237.04,4383.76,9308.38,9272.8,-862.11,76.44,24535.96,-2185.06,-5203.84,-3729.97,529.92,11979.24,721.78
0.364,-9882.11,-2221.09,691.88,3557.5,-131.38,4192.16,-1503.51,4941.84,20835.67,9228.95,4373.3,9293.54,9265.38,-866.76,58.92,24542.57,-2243.18,-5231.16,-3733.46,514.0,11993.19,713.2
0.366,-9886.89,-2225.61,687.05,3555.09,-130.8,4189.39,-1503.83,4944.74,20836.52,9229.04,4373.16,9290.64,9263.68,-863.85,57.49,24542.57,-2228.33,-5230.31,-3732.79,509.08,11991.89,708.46
0.368,-9881.13,-2215.82,696.61,3563.67,-117.75,4201.55,-1489.25,4950.64,20839.69,9236.95,4377.05,9294.12,9267.61,-860.14,62.23,24542.26,-2202.27,-5219.71,-3729.7,519.81,11989.07,706.99
0.370,-9875.63,-2206.16,714.81,3575.43,-93.07,4227.21,-1462.43,4959.32,20845.01,9246.11,4382.1,9302.17,9272.58,-858.04,73.72,24534.48,-2140.81,-5193.47,-3728.81,550.12,11996.45,714.18
0.372,-9871.92,-2197.85,732.38,3586.87,-70.01,4257.25,-1433.77,4964.37,20849.84,9257.38,4387.38,9314.28,9281.03,-859.34,89.41,24526.7,-2077.77,-5161.73,-3725.9,579.85,11993.1,722.36
0.374,-9875.94,-2200.93,733.63,3586.29,-66.21,4269.0,-1424.57,4963.03,20851.09,9258.81,4392.25,9324.83,9285.54,-858.53,104.34,24522.9,-2035.71,-5138.84,-3721.83,588.92,11984.29,727.55
0.376,-9882.91,-2211.75,720.22,3575.03,-84.0,4248.62,-1442.0,4954.67,20841.35,9246.83,4388.9,9318.89,9280.22,-859.92,99.2,24524.16,-2062.48,-5149.26,-3721.79,579.18,11990.33,730.72
0.378,-9889.53,-2221.27,702.87,3562.91,-109.61,4218.31,-1468.82,4943.71,20829.19,9232.43,4380.54,9304.18,9270.25,-864.21,80.96,24527.87,-2126.63,-5184.89,-3725.63,549.0,11995.47,724.91
0.380,-9890.02,-2225.43,684.54,3553.21,-139.34,4183.71,-1502.57,4932.31,20816.76,9221.48,4369.59,9288.49,9262.25,-869.75,58.25,24541.14,-2230.84,-5230.89,-3728.67,515.83,11996.54,716.33
0.382,-9887.34,-2223.95,682.09,3555.0,-139.65,4179.82,-1506.28,4937.46,20822.93,9227.2,4369.05,9288.22,9265.29,-865.5,58.16,24551.56,-2242.73,-5230.58,-3722.15,518.34,12007.98,726.12
0.384,-9883.09,-2216.22,689.15,3562.87,-128.75,4191.53,-1494.17,4942.55,20830.35,9235.2,4369.14,9290.64,9268.11,-863.85,60.75,24550.4,-2220.69,-5223.65,-3720.36,518.43,11999.53,725.36
0.386,-9872.5,-2200.66,712.44,3581.46,-97.86,4224.88,-1461.18,4956.23,20846.49,9251.7,4377.81,9302.84,9277.4,-858.22,74.7,24546.64,-2158.2,-5195.44,-3715.75,537.92,11996.99,730.5
0.388,-9866.19,-2190.11,732.06,3592.82,-74.12,4255.24,-1434.62,4963.92,20856.32,9262.16,4385.95,9315.27,9284.6,-855.45,89.72,24538.19,-2100.8,-5168.48,-3715.71,571.89,11989.92,732.06
0.390,-9867.31,-2188.24,746.55,3600.2,-52.48,4284.56,-1410.13,4973.98,20869.78,9270.97,4398.91,9334.58,9293.81,-848.07,114.62,24531.22,-2016.75,-5125.66,-3712.71,596.39,11976.91,736.53
0.392,-9873.39,-2197.13,740.07,3592.86,-61.78,4276.83,-1418.17,4972.5,20869.56,9264.62,4406.33,9341.82,9294.7,-840.02,123.65,24534.62,-2008.89,-5119.26,-3705.56,600.05,11983.71,745.7
0.394,-9878.09,-2207.5,717.22,3575.43,-98.3,4235.97,-1457.74,4957.21,20852.12,9247.41,4398.78,9328.99,9286.3,-844.72,105.68,24546.24,-2108.48,-5162.14,-3707.17,580.83,11992.47,739.35
0.396,-9881.53,-2214.21,701.13,3566.18,-119.81,4205.17,-1484.42,4949.08,20841.97,9238.24,4386.35,9311.56,9279.06,-852.99,84.85,24554.87,-2186.54,-5195.04,-3712.62,545.52,12002.26,733.99
0.398,-9883.36,-2218.5,694.83,3563.23,-125.62,4194.57,-1492.69,4948.94,20843.54,9236.55,4381.03,9303.65,9275.3,-854.1,74.52,24556.03,-2209.43,-5212.11,-3718.53,526.88,11999.58,717.45
0.400,-9885.73,-2219.13,689.91,3560.5,-129.77,4190.28,-1496.76,4943.13,20839.02,9233.24,4371.02,9294.08,9268.42,-864.43,62.67,24547.89,-2224.94,-5225.12,-3731.44,521.11,11996.36,700.28
0.402,-9884.7,-2213.09,698.09,3566.71,-117.53,4204.94,-1480.98,4941.79,20838.62,9237.8,4365.56,9292.42,9268.24,-873.33,60.04,24538.86,-2204.73,-5219.36,-3737.52,527.99,12004.36,708.06
0.404,-9880.1,-2205.09,717.76,3579.68,-90.93,4236.5,-1450.18,4949.26,20847.65,9249.24,4371.82,9302.84,9275.84,-869.21,76.62,24532.2,-2133.3,-5185.34,-3733.1,553.03,11994.35,717.89
0.406,-9876.21,-2199.81,735.42,3589.38,-67.28,4268.47,-1425.15,4958.42,20857.22,9258.49,4384.52,9319.6,9283.57,-861.3,98.03,24524.96,-2053.5,-5147.03,-3728.09,575.24,11982.46,726.16
0.408,-9884.48,-2208.49,727.59,3582.09,-75.64,4264.0,-1429.89,4953.1,20850.29,9251.34,4386.98,9322.02,9281.43,-862.64,103.13,24520.44,-2037.41,-5139.96,-3728.09,587.54,11992.52,735.64
0.410,-9892.08,-2219.84,706.81,3566.4,-104.34,4229.8,-1458.99,4939.11,20830.08,9231.85,4377.77,9304.94,9268.28,-871.54,84.04,24518.25,-2102.27,-5173.36,-3736.14,570.64,12004.27,734.17
0.412,-9897.84,-2230.21,685.89,3551.56,-133.57,4191.09,-1492.56,4927.71,20812.42,9214.6,4368.56,9285.9,9256.48,-874.94,62.67,24525.23,-2183.32,-5212.16,-3739.13,543.73,12007.31,729.52
0.414,-9899.9,-2234.01,673.5,3544.63,-149.13,4167.53,-1511.6,4924.8,20806.03,9209.1,4363.11,9274.41,9251.57,-874.04,50.02,24535.24,-2230.7,-5234.2,-3736.41,526.65,12016.16,729.25
0.416,-9896.41,-2229.54,669.12,3545.79,-154.27,4160.78,-1515.67,4924.45,20805.09,9213.12,4360.51,9270.3,9253.58,-873.37,45.51,24540.56,-2246.84,-5243.32,-3734.62,521.56,12017.33,722.36
0.418,-9890.74,-2218.1,681.5,3556.52,-135.59,4178.52,-1495.82,4931.11,20810.95,9223.36,4361.67,9272.8,9257.38,-871.76,50.43,24535.24,-2205.71,-5227.13,-3739.04,530.99,12006.95,712.48
0.420,-9890.96,-2209.25,699.12,3568.19,-110.02,4207.18,-1467.88,4938.22,20816.45,9232.97,4366.28,9279.42,9260.55,-871.49,61.78,24522.64,-2140.22,-5201.97,-3742.17,544.4,11987.24,708.01
0.422,-9887.16,-2196.86,722.1,3583.66,-81.27,4244.42,-1435.25,4949.17,20829.55,9250.22,4379.02,9299.35,9276.11,-864.65,85.43,24522.41,-2071.38,-5164.64,-3732.92,572.65,11984.83,722.14
0.424,-9889.48,-2199.05,727.73,3584.82,-73.36,4258.63,-1425.19,4953.19,20835.18,9254.65,4388.23,9314.2,9283.89,-860.45,101.88,24520.67,-2028.51,-5139.38,-3727.02,586.42,11979.37,727.86
0.426,-9893.46,-2208.98,716.95,3574.4,-90.3,4239.14,-1444.59,4948.23,20828.07,9245.17,4388.9,9312.72,9280.94,-859.78,98.93,24525.81,-2065.7,-5152.57,-3723.76,578.78,11988.76,728.13
0.428,-9898.29,-2218.5,699.79,3561.44,-114.75,4208.39,-1472.58,4938.89,20817.16,9231.9,4380.76,9299.62,9274.32,-865.06,81.81,24533.54,-2137.45,-5185.65,-3723.89,545.52,11993.72,723.79
0.430,-9898.07,-2223.78,684.77,3552.09,-136.79,4178.12,-1499.98,4931.82,20809.61,9223.18,4371.64,9286.08,9267.84,-868.59,63.52,24543.82,-2215.86,-5220.74,-3727.33,516.28,11995.91,715.17
0.432,-9894.76,-2224.22,682.35,3552.77,-138.63,4172.4,-1504.05,4935.98,20815.55,9227.29,4370.26,9285.18,9269.94,-867.43,60.93,24551.38,-2233.25,-5227.31,-3727.02,518.52,12005.03,719.77
0.434,-9885.91,-2217.52,693.49,3561.71,-123.65,4188.14,-1488.8,4945.37,20827.31,9238.15,4374.95,9292.92,9276.82,-862.87,68.44,24555.63,-2210.68,-5215.96,-3719.82,529.07,12002.71,718.47
0.436,-9877.33,-2209.74,712.08,3573.51,-99.15,4216.39,-1465.47,4956.9,20839.83,9249.87,4383.58,9304.63,9285.05,-856.07,82.43,24553.12,-2158.78,-5191.64,-3714.32,547.8,11996.32,721.56
0.438,-9869.23,-2199.68,737.25,3589.82,-64.1,4257.29,-1429.89,4971.74,20856.77,9265.51,4397.57,9322.69,9296.0,-848.65,103.98,24546.73,-2074.29,-5150.91,-3709.18,585.88,12006.51,736.98
0.440,-9870.89,-2199.95,746.32,3595.01,-50.38,4281.61,-1409.5,4976.39,20865.76,9271.68,4406.69,9337.93,9302.3,-847.18,121.1,24539.22,-2013.85,-5120.87,-3707.13,607.7,12015.22,748.96
0.442,-9872.85,-2205.8,739.93,3589.42,-60.8,4273.56,-1417.46,4972.99,20862.67,9265.65,4408.52,9339.45,9301.86,-846.95,122.62,24538.55,-2022.56,-5122.35,-3706.32,595.94,12008.97,745.25
0.444,-9881.04,-2216.98,718.25,3573.78,-93.03,4238.07,-1450.45,4956.9,20846.27,9248.53,4397.35,9323.63,9290.23,-854.28,101.97,24542.22,-2105.76,-5161.64,-3711.6,570.1,11999.8,731.53
0.446,-9890.38,-2228.07,697.42,3561.12,-119.18,4204.9,-1477.63,4946.62,20835.45,9235.92,4386.53,9306.24,9280.09,-857.5,82.75,24548.38,-2172.1,-5193.07,-3714.14,546.9,12000.47,726.92
0.448,-9893.2,-2233.7,686.56,3556.12,-131.96,4188.85,-1491.13,4945.95,20834.55,9233.91,4384.47,9299.58,9278.48,-853.84,75.41,24557.82,-2206.07,-5209.34,-3709.9,542.75,12021.17,733.94
0.450,-9886.8,-2226.77,690.4,3561.8,-128.21,4191.53,-1487.37,4951.98,20839.02,9240.61,4388.14,9301.5,9282.55,-847.31,77.52,24563.63,-2203.52,-5207.55,-3706.86,547.26,12016.07,730.19
0.452,-9881.97,-2218.28,705.2,3572.43,-108.05,4213.8,-1465.16,4958.24,20844.92,9248.53,4387.2,9302.93,9284.15,-850.93,79.39,24552.01,-2160.25,-5195.26,-3712.58,534.21,11984.83,718.52
0.454,-9875.31,-2208.75,723.62,3582.94,-84.13,4241.38,-1441.64,4962.58,20848.9,9256.13,4388.01,9307.76,9286.43,-859.56,83.77,24539.49,-2123.24,-5179.93,-3717.14,544.94,11984.69,721.96
0.456,-9866.64,-2200.53,746.73,3597.65,-53.02,4279.46,-1410.89,4976.97,20864.1,9269.27,4403.52,9327.87,9297.52,-851.87,108.54,24533.41,-2044.78,-5138.04,-3710.88,583.25,11996.09,736.0
0.458,-9868.97,-2207.77,743.46,3592.28,-59.1,4278.26,-1417.23,4976.35,20861.87,9264.49,4409.82,9335.03,9297.7,-848.87,116.01,24532.11,-2038.12,-5131.02,-3710.26,583.56,11986.12,734.08
0.460,-9870.98,-2219.35,733.49,3582.22,-72.96,4256.93,-1437.62,4972.19,20854.36,9252.42,4407.45,9326.0,9289.97,-849.77,107.38,24532.87,-2074.29,-5148.68,-3712.62,568.76,11992.29,735.95
0.462,-9874.11,-2227.84,716.6,3570.24,-100.4,4221.98,-1469.31,4961.28,20840.63,9238.33,4396.54,9309.64,9279.55,-856.83,85.16,24539.89,-2169.1,-5191.91,-3717.77,545.52,11998.73,729.02
0.464,-9874.55,-2232.22,704.88,3563.18,-116.63,4199.31,-1489.92,4959.36,20835.09,9233.51,4390.69,9299.4,9275.04,-856.12,72.02,24550.4,-2227.84,-5217.3,-3716.74,528.44,12008.47,725.22
0.466,-9870.26,-2229.14,705.47,3567.25,-114.13,4200.03,-1489.12,4964.59,20840.59,9240.84,4392.52,9302.08,9280.09,-851.87,73.81,24558.71,-2228.87,-5215.6,-3710.84,527.59,12012.45,725.98
0.468,-9864.36,-2222.75,719.86,3578.69,-92.58,4222.74,-1466.23,4973.44,20851.23,9252.19,4396.54,9310.04,9286.21,-848.65,84.27,24556.39,-2177.02,-5193.87,-3704.89,538.27,12009.5,729.47
0.470,-9862.13,-2218.81,733.32,3586.25,-75.28,4243.7,-1445.98,4975.54,20855.83,9259.03,4398.2,9317.01,9289.52,-850.53,92.94,24549.37,-2134.1,-5175.59,-3703.28,556.56,12001.59,729.43
0.472,-9855.29,-2210.32,755.67,3599.88,-44.93,4280.67,-1413.03,4987.48,20870.94,9273.56,4409.6,9335.25,9301.19,-845.16,115.83,24545.03,-2052.02,-5134.02,-3694.61,587.94,12000.79,740.56
0.474,-9858.15,-2216.13,758.48,3598.9,-38.89,4294.49,-1403.29,4988.82,20876.04,9275.44,4417.06,9347.99,9306.46,-842.39,131.47,24541.05,-2004.1,-5110.15,-3690.59,599.97,11994.08,746.15
0.476,-9866.28,-2227.53,742.08,3585.85,-62.85,4269.9,-1425.19,4977.69,20864.86,9262.74,4411.7,9341.33,9301.19,-847.8,121.82,24544.09,-2055.33,-5130.17,-3693.18,585.88,11999.04,744.13
0.478,-9872.81,-2238.3,723.48,3572.3,-89.72,4237.49,-1452.64,4967.05,20851.72,9248.48,4402.8,9326.22,9292.2,-852.54,102.37,24549.32,-2130.08,-5166.52,-3697.47,554.59,11998.68,735.69
0.480,-9876.48,-2243.71,708.06,3564.43,-110.82,4208.34,-1477.05,4961.33,20843.81,9239.9,4393.82,9311.56,9283.8,-854.91,83.01,24557.64,-2200.66,-5198.84,-3700.11,527.86,12002.8,730.63
0.482,-9875.98,-2244.92,706.0,3566.27,-111.71,4206.82,-1478.52,4966.92,20850.51,9242.8,4395.16,9310.98,9284.29,-849.46,81.27,24561.8,-2201.07,-5203.89,-3697.29,523.03,12007.09,730.32
0.484,-9871.87,-2238.21,711.68,3572.61,-105.77,4215.58,-1470.12,4970.04,20855.56,9250.9,4395.38,9313.52,9288.4,-849.1,82.61,24564.48,-2195.66,-5200.89,-3695.15,530.94,12010.89,730.81
0.486,-9864.76,-2227.93,726.97,3585.18,-86.28,4238.43,-1445.8,4974.96,20862.94,9261.67,4397.21,9319.16,9294.26,-850.13,89.9,24559.69,-2155.74,-5184.0,-3694.3,548.87,12009.1,734.21
0.488,-9857.61,-2216.35,748.47,3599.44,-58.38,4272.67,-1415.0,4984.62,20876.22,9275.93,4405.66,9333.11,9303.42,-846.86,107.38,24553.3,-2090.87,-5150.11,-3691.08,578.06,12007.63,741.23
0.490,-9863.47,-2218.59,756.2,3603.82,-42.74,4299.09,-1393.01,4988.51,20885.92,9282.5,4413.71,9347.99,9309.46,-844.63,126.24,24542.35,-2013.49,-5115.11,-3687.64,597.6,11999.13,746.68
0.492,-9875.22,-2233.79,742.57,3590.09,-61.29,4282.73,-1408.65,4977.69,20875.68,9269.0,4410.4,9344.37,9302.75,-849.68,122.13,24536.76,-2029.23,-5124.32,-3692.78,586.51,11990.59,742.26
0.494,-9882.02,-2246.84,720.13,3571.9,-94.73,4244.06,-1445.8,4961.55,20857.13,9249.96,4398.87,9327.56,9290.37,-858.71,100.54,24541.32,-2119.21,-5166.43,-3700.24,556.51,11988.31,732.51
0.496,-9873.08,-2243.27,714.32,3571.41,-105.23,4222.51,-1464.53,4963.96,20854.8,9248.44,4396.41,9318.49,9289.25,-855.62,90.26,24556.88,-2179.34,-5187.12,-3694.79,538.72,12002.57,737.07
0.498,-9866.82,-2241.97,712.17,3572.93,-108.09,4214.29,-1471.46,4969.15,20857.71,9249.69,4397.71,9315.8,9290.19,-848.96,86.9,24565.91,-2196.68,-5199.11,-3688.93,529.51,12006.95,738.37
0.500,-9866.55,-2241.75,708.1,3570.65,-113.64,4206.82,-1478.7,4965.13,20853.64,9250.54,4391.36,9311.6,9289.25,-851.74,82.21,24571.41,-2216.18,-5206.26,-3686.74,534.92,12008.74,737.52
0.502,-9862.66,-2234.59,721.87,3579.77,-92.63,4227.56,-1458.32,4971.88,20859.77,9258.9,4392.74,9315.85,9293.32,-849.9,89.81,24566.04,-2164.19,-5183.77,-3685.76,551.51,12011.29,743.02
0.504,-9861.5,-2230.35,741.18,3590.05,-63.21,4259.75,-1428.77,4981.58,20866.96,9264.4,4399.4,9323.31,9295.15,-847.76,102.73,24549.55,-2079.56,-5153.24,-3688.89,570.15,12007.36,746.59
0.506,-9863.47,-2229.99,749.41,3592.77,-50.11,4281.12,-1415.13,4981.94,20867.77,9265.07,4404.23,9332.88,9295.91,-850.22,113.73,24537.43,-2033.56,-5131.11,-3693.04,592.54,11995.38,742.21
0.508,-9870.4,-2240.14,746.95,3587.59,-49.93,4284.52,-1414.51,4982.78,20866.11,9258.18,4409.82,9338.96,9294.12,-847.04,123.78,24530.99,-1996.86,-5114.53,-3691.03,591.07,11972.76,741.41
0.510,-9875.49,-2251.76,727.33,3571.41,-81.94,4249.02,-1448.04,4969.06,20847.07,9240.26,4403.7,9326.8,9284.51,-851.02,108.76,24537.57,-2073.57,-5149.62,-3692.55,563.76,11961.45,734.43
0.512,-9882.02,-2262.0,707.66,3558.17,-109.39,4213.13,-1478.43,4958.02,20830.62,9227.43,4392.7,9309.32,9275.66,-857.19,88.96,24547.04,-2151.89,-5183.32,-3694.92,548.11,11995.15,742.66
0.514,-9883.23,-2266.2,695.32,3552.14,-125.71,4191.53,-1496.32,4953.15,20824.63,9220.59,4384.47,9296.45,9268.64,-860.5,73.0,24552.27,-2200.57,-5211.44,-3696.84,539.71,12023.58,743.11
0.516,-9884.16,-2265.04,686.87,3550.66,-134.96,4181.61,-1504.5,4948.18,20820.38,9220.45,4374.91,9288.22,9265.42,-869.53,60.84,24552.45,-2234.46,-5227.49,-3703.91,524.28,12012.77,728.35
0.518,-9878.53,-2254.53,703.45,3564.43,-109.39,4208.12,-1477.27,4960.61,20834.55,9233.42,4380.76,9296.76,9272.67,-864.16,73.05,24550.35,-2179.7,-5202.73,-3698.86,543.28,12015.54,737.74
0.520,-9862.13,-2233.16,733.99,3588.26,-73.63,4248.8,-1439.36,4979.88,20856.64,9253.53,4399.67,9318.13,9288.89,-848.47,98.39,24552.9,-2105.58,-5163.79,-3684.46,586.42,12040.12,767.83
0.522,-9848.0,-2216.71,761.52,3608.82,-42.11,4289.08,-1404.99,4995.39,20873.8,9271.24,4417.02,9340.26,9303.6,-837.12,123.07,24551.33,-2030.83,-5124.94,-3676.82,619.05,12034.98,780.03
0.524,-9854.53,-2224.71,761.21,3604.84,-39.2,4300.25,-1399.67,4993.78,20874.79,9268.96,4420.86,9348.44,9302.35,-837.16,133.26,24541.01,-1986.94,-5105.76,-3680.66,614.18,11996.23,765.86
0.526,-9869.68,-2244.65,734.52,3580.66,-76.04,4262.3,-1436.59,4970.54,20851.18,9246.56,4404.81,9331.67,9287.78,-854.24,112.07,24538.01,-2067.98,-5144.08,-3691.79,585.21,11985.59,749.05
0.528,-9880.86,-2262.22,712.98,3561.97,-104.74,4226.45,-1467.62,4955.87,20833.88,9228.36,4387.83,9310.49,9274.1,-867.61,87.75,24536.63,-2140.45,-5180.28,-3700.51,553.79,11996.99,736.62
0.530,-9882.91,-2268.39,695.14,3551.87,-129.24,4195.82,-1494.75,4945.95,20822.71,9217.86,4375.49,9293.32,9265.6,-874.67,65.76,24543.24,-2220.29,-5217.84,-3706.55,519.23,11999.0,713.96
0.532,-9880.99,-2267.67,691.16,3552.32,-132.1,4191.89,-1496.23,4948.5,20827.94,9222.29,4374.06,9291.8,9267.17,-872.43,62.5,24548.47,-2229.5,-5225.26,-3705.29,508.77,12004.45,713.15
0.534,-9874.42,-2257.84,700.68,3562.6,-117.84,4206.91,-1478.43,4957.84,20840.1,9236.46,4377.63,9299.85,9277.81,-865.19,72.87,24556.3,-2198.92,-5206.66,-3692.96,532.02,12017.42,728.4
0.536,-9867.8,-2248.27,718.07,3574.63,-94.46,4233.02,-1451.79,4967.27,20851.23,9248.35,4385.23,9309.73,9284.83,-860.77,86.55,24551.74,-2140.89,-5181.98,-3689.02,552.13,12005.48,736.98
0.538,-9862.35,-2239.73,738.23,3585.76,-68.62,4264.89,-1424.3,4975.77,20861.06,9259.25,4394.35,9321.97,9291.89,-857.77,102.64,24544.58,-2074.73,-5149.84,-3686.47,574.04,11998.19,745.48
0.540,-9860.56,-2238.21,749.19,3590.32,-54.31,4288.0,-1408.74,4981.85,20870.81,9265.6,4406.24,9338.47,9299.8,-851.78,121.77,24542.98,-2020.64,-5120.02,-3678.38,600.23,12005.03,757.55
0.542,-9863.02,-2244.38,739.98,3581.11,-69.47,4273.12,-1425.19,4974.69,20862.72,9257.11,4405.84,9336.95,9296.4,-854.33,119.4,24545.08,-2047.64,-5129.37,-3679.5,593.71,12004.9,755.0
0.544,-9865.21,-2251.45,724.64,3570.87,-91.78,4243.3,-1451.34,4965.17,20849.98,9244.64,4396.63,9323.09,9288.98,-859.92,103.53,24550.17,-2113.04,-5157.93,-3684.51,566.04,11996.81,742.93
0.546,-9869.01,-2257.84,711.37,3564.03,-108.09,4219.47,-1468.11,4959.49,20843.36,9235.11,4389.26,9309.64,9282.72,-860.72,89.23,24555.0,-2155.92,-5183.91,-3684.91,534.12,11997.03,735.64
0.548,-9874.96,-2264.63,692.77,3552.23,-133.35,4191.58,-1495.56,4946.71,20829.05,9225.24,4375.67,9294.44,9273.65,-869.66,68.35,24558.98,-2227.4,-5221.23,-3692.42,514.0,11990.06,715.21
0.550,-9874.06,-2260.52,695.27,3555.76,-125.13,4196.27,-1489.12,4951.36,20832.05,9229.97,4373.88,9291.44,9272.8,-869.21,66.74,24555.63,-2209.38,-5214.89,-3696.8,529.87,12002.35,714.32
0.552,-9869.82,-2250.91,703.86,3562.33,-116.14,4207.31,-1477.72,4951.22,20830.75,9234.22,4372.63,9291.58,9273.78,-872.7,66.74,24549.64,-2196.33,-5210.15,-3701.27,551.78,12018.09,721.11
0.554,-9858.33,-2235.71,732.06,3581.82,-76.89,4247.95,-1439.23,4970.27,20848.63,9250.67,4387.2,9308.12,9284.69,-861.79,91.46,24544.5,-2098.47,-5163.88,-3692.51,586.64,12018.09,736.4
0.556,-9858.24,-2233.74,746.5,3589.2,-56.19,4277.1,-1416.47,4979.07,20858.47,9257.33,4400.03,9324.61,9291.22,-854.33,111.67,24536.23,-2026.28,-5131.29,-3689.74,605.29,11998.24,738.68
0.558,-9863.69,-2242.55,743.02,3583.03,-59.55,4278.57,-1419.29,4979.21,20858.42,9252.28,4405.89,9331.45,9291.58,-850.98,119.4,24533.36,-2010.27,-5121.77,-3689.56,605.02,12003.74,746.46
0.560,-9867.58,-2252.83,727.77,3569.89,-84.09,4249.92,-1446.96,4968.66,20845.01,9236.68,4399.36,9320.28,9282.05,-857.95,103.22,24536.0,-2079.38,-5152.97,-3695.41,581.19,12009.28,741.72
0.562,-9871.29,-2259.72,711.63,3560.28,-107.24,4219.79,-1471.55,4959.76,20834.64,9224.74,4388.94,9305.03,9273.87,-864.43,82.97,24541.1,-2155.02,-5188.51,-3700.38,546.77,12005.88,733.05
0.564,-9874.64,-2264.1,695.9,3551.92,-129.37,4193.95,-1495.6,4953.19,20826.06,9218.44,4379.87,9291.62,9267.93,-869.93,64.19,24549.5,-2227.93,-5221.73,-3703.55,523.52,12002.71,726.03
0.566,-9870.53,-2257.48,699.65,3558.58,-120.88,4202.04,-1486.66,4962.94,20837.15,9229.39,4384.12,9295.87,9274.81,-863.72,69.69,24556.12,-2208.67,-5213.05,-3696.76,527.59,12012.23,734.39
0.568,-9866.33,-2249.21,709.0,3567.03,-108.63,4216.57,-1471.28,4966.38,20843.18,9236.68,4385.37,9299.85,9278.39,-863.13,73.54,24553.44,-2184.61,-5204.29,-3696.58,535.86,12008.52,732.87
0.570,-9859.18,-2240.18,726.39,3578.07,-87.71,4241.29,-1447.45,4972.41,20850.87,9245.62,4389.84,9308.21,9283.62,-861.62,83.82,24547.45,-2136.83,-5181.67,-3695.59,560.45,12005.3,735.77
0.572,-9853.63,-2232.31,747.98,3591.12,-58.16,4277.36,-1416.65,4982.61,20865.17,9258.41,4400.25,9324.7,9291.8,-856.92,105.05,24539.89,-2058.1,-5143.05,-3693.63,591.78,12002.8,742.03
0.574,-9859.53,-2237.9,748.69,3589.11,-56.37,4288.18,-1411.33,4982.83,20868.35,9258.63,4405.89,9335.61,9294.12,-856.21,118.06,24535.2,-2024.89,-5125.3,-3692.6,603.23,11997.03,743.78
0.576,-9865.52,-2247.83,739.66,3580.03,-68.8,4273.34,-1425.1,4978.76,20862.76,9248.75,4405.04,9331.18,9288.4,-855.62,113.9,24533.45,-2042.46,-5131.83,-3693.67,594.02,12000.7,746.5
0.578,-9873.39,-2260.07,718.21,3564.08,-100.85,4236.01,-1460.37,4963.03,20844.57,9230.47,4393.91,9312.76,9275.88,-864.43,90.44,24536.67,-2129.41,-5176.17,-3699.57,559.2,11998.77,737.21
0.580,-9873.7,-2263.38,702.43,3555.67,-122.4,4206.87,-1485.18,4955.69,20834.55,9221.97,4384.07,9297.79,9268.28,-868.41,71.03,24544.09,-2199.19,-5210.68,-3703.19,532.82,12003.96,731.39
0.582,-9873.21,-2262.09,692.05,3551.96,-134.83,4193.37,-1496.85,4952.3,20831.38,9223.63,4377.1,9290.9,9268.28,-870.24,61.96,24552.54,-2237.54,-5226.73,-3703.77,527.1,12009.32,728.67
0.584,-9867.4,-2253.82,702.34,3561.57,-118.02,4209.59,-1477.72,4961.01,20841.57,9235.43,4379.82,9294.79,9275.21,-865.06,69.83,24553.12,-2196.46,-5208.67,-3700.15,539.79,12014.24,734.97
0.586,-9862.93,-2244.52,716.73,3570.51,-99.29,4231.5,-1455.72,4965.04,20847.29,9243.61,4383.49,9301.05,9279.33,-864.7,77.74,24547.31,-2152.16,-5192.71,-3699.39,552.18,12005.52,734.43
0.588,-9859.35,-2237.36,734.08,3581.02,-76.26,4259.75,-1431.45,4971.97,20852.97,9253.35,4389.75,9311.2,9285.27,-863.76,92.58,24540.25,-2093.2,-5161.51,-3697.6,577.84,12002.13,741.63
0.590,-9865.34,-2240.4,741.76,3583.43,-60.44,4283.98,-1413.35,4977.02,20859.36,9256.39,4399.85,9324.16,9289.52,-859.42,112.16,24529.74,-2014.07,-5126.77,-3695.06,598.09,11996.36,747.31
0.592,-9875.27,-2253.19,725.58,3567.38,-82.66,4261.54,-1436.05,4966.83,20844.07,9240.84,4397.39,9318.93,9281.16,-864.43,105.54,24527.28,-2049.83,-5140.81,-3699.39,585.26,11988.85,740.78
0.594,-9876.57,-2258.15,714.99,3559.2,-100.49,4235.79,-1457.38,4963.83,20835.45,9230.64,4395.38,9309.55,9275.44,-863.76,94.68,24533.01,-2100.66,-5163.3,-3700.24,566.53,11994.21,739.57
0.596,-9873.97,-2257.48,700.24,3552.18,-124.77,4203.42,-1483.62,4956.86,20826.33,9223.36,4390.28,9297.34,9271.5,-864.52,76.58,24547.94,-2190.07,-5203.66,-3699.75,538.99,12003.15,735.77
0.598,-9871.42,-2256.27,694.2,3551.47,-132.72,4191.18,-1493.95,4958.96,20828.65,9227.65,4388.05,9295.29,9275.12,-861.26,70.59,24562.02,-2229.54,-5218.28,-3694.7,531.75,12016.03,737.43
0.600,-9869.01,-2253.1,702.69,3559.16,-114.4,4207.58,-1477.14,4971.43,20842.69,9240.03,4392.74,9302.26,9282.72,-851.87,80.82,24563.49,-2181.84,-5195.22,-3688.66,546.54,12028.01,747.35
0.602,-9867.36,-2247.24,714.32,3566.49,-98.84,4226.58,-1458.59,4976.03,20849.89,9246.65,4394.8,9308.16,9286.21,-851.02,87.66,24556.43,-2144.02,-5185.29,-3689.24,553.79,12013.79,741.27
0.604,-9862.98,-2238.53,730.14,3575.3,-80.51,4248.71,-1437.8,4979.34,20855.34,9255.46,4397.08,9316.61,9291.44,-853.48,95.98,24550.62,-2107.59,-5164.24,-3689.65,573.46,12003.51,740.69
0.606,-9857.83,-2232.63,748.25,3584.24,-55.57,4281.07,-1412.67,4989.09,20867.72,9265.29,4409.33,9334.04,9299.67,-847.49,117.66,24545.03,-2033.83,-5127.53,-3684.73,602.11,12003.91,750.75
0.608,-9861.59,-2239.82,747.89,3580.93,-54.58,4285.77,-1413.21,4991.5,20869.73,9261.27,4416.88,9341.38,9299.13,-843.69,127.9,24540.56,-2006.92,-5112.83,-3683.08,606.72,12001.95,756.96
0.610,-9864.0,-2248.14,736.31,3570.15,-73.4,4260.06,-1437.49,4984.93,20859.18,9246.96,4413.8,9332.57,9290.86,-845.61,116.27,24543.29,-2063.11,-5138.0,-3686.07,587.58,12004.99,754.1
0.612,-9868.07,-2256.5,718.16,3558.17,-100.4,4226.27,-1466.32,4974.2,20845.19,9231.63,4403.25,9315.18,9279.86,-851.24,94.91,24547.94,-2139.64,-5176.93,-3691.21,555.84,12005.26,745.3
0.614,-9870.13,-2259.27,702.74,3551.92,-121.91,4200.47,-1486.79,4966.16,20836.88,9226.04,4393.19,9301.72,9274.14,-855.85,77.83,24556.43,-2204.37,-5206.79,-3692.69,534.83,12010.4,739.8
0.616,-9868.79,-2255.2,700.91,3555.0,-121.24,4200.34,-1483.53,4967.9,20841.03,9232.79,4391.13,9300.69,9276.64,-853.79,76.89,24560.14,-2201.92,-5206.57,-3690.45,537.29,12015.76,741.18
0.618,-9868.61,-2248.94,705.56,3560.1,-114.84,4208.92,-1472.58,4966.6,20841.26,9237.13,4387.65,9300.02,9277.23,-857.28,77.16,24556.39,-2184.61,-5201.43,-3691.21,547.13,12013.35,738.68
0.620,-9865.57,-2239.78,724.11,3571.99,-86.81,4239.32,-1442.76,4975.5,20851.63,9247.45,4392.7,9308.74,9281.96,-854.33,91.6,24547.13,-2109.07,-5167.9,-3689.07,572.56,12012.54,744.31
0.622,-9864.85,-2234.59,739.13,3580.48,-65.31,4269.9,-1417.28,4981.09,20860.03,9254.65,4401.19,9321.93,9287.15,-851.78,108.36,24535.33,-2037.0,-5135.72,-3690.23,593.53,12000.52,746.15
0.624,-9872.01,-2243.62,736.67,3575.65,-65.76,4278.39,-1414.24,4980.15,20860.39,9251.43,4409.02,9331.32,9286.84,-849.63,119.63,24526.57,-2000.75,-5117.97,-3693.72,603.45,11991.89,745.07
0.626,-9878.35,-2254.8,720.58,3560.77,-88.83,4252.33,-1440.3,4970.18,20847.7,9236.37,4405.89,9324.07,9278.12,-851.91,110.19,24527.69,-2052.65,-5140.28,-3698.9,589.1,11995.82,742.52
0.628,-9880.86,-2261.64,704.39,3549.37,-113.37,4220.46,-1469.58,4962.27,20836.43,9224.61,4398.91,9311.02,9271.19,-854.42,93.16,24538.15,-2133.12,-5174.88,-3700.51,568.76,12008.16,742.52
0.630,-9877.33,-2260.88,693.4,3543.96,-132.68,4192.78,-1493.77,4959.32,20829.86,9220.32,4392.88,9300.52,9268.42,-854.86,77.02,24553.61,-2210.32,-5209.61,-3699.3,547.44,12019.61,738.14
0.632,-9876.21,-2259.05,693.71,3548.47,-126.6,4194.93,-1489.56,4967.85,20837.77,9227.87,4394.62,9301.01,9271.46,-849.01,78.77,24559.83,-2195.43,-5202.37,-3694.92,541.58,12012.32,738.9
0.634,-9879.02,-2257.12,695.01,3550.17,-123.52,4201.9,-1483.26,4967.14,20837.91,9230.02,4391.4,9299.13,9270.92,-852.18,76.35,24554.33,-2184.48,-5203.22,-3698.86,530.32,11985.63,726.3
0.636,-9876.61,-2250.19,712.93,3560.63,-97.5,4229.75,-1455.14,4977.82,20849.08,9241.06,4397.12,9308.03,9276.82,-848.74,89.9,24545.7,-2117.43,-5174.03,-3698.81,563.53,12003.56,737.16
0.638,-9873.84,-2244.47,728.26,3568.63,-77.92,4255.46,-1433.46,4981.49,20854.22,9247.86,4400.88,9317.59,9280.76,-851.29,100.72,24535.38,-2067.76,-5152.26,-3700.55,590.49,12014.2,744.27
0.640,-9877.59,-2245.72,734.97,3569.84,-67.14,4274.68,-1420.81,4984.04,20859.94,9252.33,4408.7,9330.47,9286.61,-849.9,116.81,24529.43,-2016.44,-5123.87,-3699.97,611.23,12004.99,748.52
0.642,-9882.06,-2253.91,728.31,3562.11,-76.13,4266.32,-1428.77,4981.49,20856.14,9245.04,4411.61,9330.78,9283.26,-848.2,118.87,24526.3,-2012.33,-5123.29,-3700.96,605.15,11993.1,745.61
0.644,-9880.32,-2258.51,712.75,3552.54,-103.94,4233.15,-1459.3,4970.27,20842.47,9232.79,4405.17,9319.16,9275.93,-852.63,100.76,24536.99,-2102.54,-5162.09,-3703.19,579.94,11994.88,736.62
0.646,-9874.78,-2258.24,704.8,3550.35,-117.44,4210.4,-1477.85,4969.69,20839.78,9229.26,4401.77,9310.84,9274.9,-850.26,89.36,24552.23,-2162.89,-5186.77,-3697.16,557.05,12008.83,740.02
0.648,-9871.74,-2256.5,699.39,3550.35,-125.66,4199.04,-1487.46,4971.07,20842.38,9231.85,4399.54,9307.04,9276.47,-847.09,84.4,24563.85,-2195.7,-5199.46,-3691.93,541.49,12006.95,738.32
0.650,-9869.9,-2251.45,702.25,3555.54,-120.7,4204.54,-1479.46,4973.22,20848.05,9239.23,4398.15,9307.85,9279.91,-846.42,85.74,24566.4,-2184.03,-5196.11,-3688.04,554.14,12020.05,744.18
0.652,-9864.14,-2239.51,717.89,3568.77,-100.45,4227.92,-1454.61,4978.14,20855.38,9251.3,4397.8,9312.14,9286.43,-849.68,91.15,24561.75,-2146.53,-5178.54,-3687.68,571.94,12038.11,757.01
0.654,-9857.83,-2227.84,736.49,3581.64,-77.29,4256.71,-1428.23,4984.08,20863.16,9262.7,4403.52,9323.4,9294.26,-850.22,103.98,24556.34,-2098.87,-5154.8,-3684.55,589.06,12033.73,763.27
0.656,-9852.92,-2221.54,755.31,3593.0,-50.92,4291.13,-1400.43,4996.24,20876.66,9273.74,4417.02,9342.94,9303.87,-843.2,128.34,24550.44,-2017.96,-5112.16,-3679.45,617.09,12027.79,771.09
0.658,-9856.99,-2228.2,748.74,3586.29,-60.66,4286.89,-1409.77,4992.58,20873.22,9266.5,4421.89,9349.11,9302.75,-842.21,134.33,24549.37,-2019.12,-5109.21,-3680.26,614.85,12013.57,765.64
0.660,-9862.08,-2236.29,737.52,3577.53,-76.4,4267.08,-1428.1,4988.6,20867.32,9255.14,4420.06,9341.82,9295.91,-841.81,125.93,24550.89,-2055.65,-5126.15,-3683.17,591.61,12007.4,759.42
0.662,-9868.3,-2244.38,718.65,3564.97,-103.71,4233.51,-1457.83,4977.69,20854.94,9240.7,4410.8,9326.18,9286.48,-846.64,104.43,24558.67,-2139.64,-5167.99,-3686.83,559.29,12011.74,751.73
0.664,-9869.5,-2246.66,703.1,3557.64,-125.53,4206.96,-1482.14,4971.03,20846.22,9234.13,4399.36,9312.18,9281.7,-853.66,85.29,24569.22,-2218.5,-5201.88,-3689.87,533.22,12013.12,743.15
0.666,-9865.48,-2241.7,705.69,3564.03,-118.37,4212.68,-1475.04,4978.05,20854.27,9242.58,4400.08,9313.84,9286.93,-848.56,87.22,24573.06,-2204.55,-5198.08,-3686.56,535.59,12011.74,744.04
0.668,-9856.4,-2229.68,722.45,3578.29,-96.11,4235.61,-1450.63,4988.19,20866.56,9258.14,4406.24,9322.38,9295.55,-842.12,97.41,24573.91,-2160.25,-5177.6,-3681.42,557.05,12016.48,749.72
0.670,-9850.86,-2221.18,741.09,3590.45,-72.24,4264.31,-1423.31,4995.61,20875.14,9268.87,4412.14,9331.0,9300.52,-839.08,108.85,24565.15,-2100.66,-5154.04,-3681.51,578.37,12021.84,754.55
0.672,-9849.88,-2216.76,757.01,3597.69,-50.65,4293.19,-1400.78,5000.26,20882.12,9276.82,4417.82,9342.4,9305.7,-840.56,123.07,24554.96,-2038.52,-5124.23,-3684.69,597.19,12012.05,759.51
0.674,-9853.27,-2220.96,760.63,3597.69,-43.54,4307.4,-1391.4,5005.72,20888.33,9278.34,4427.12,9356.17,9310.75,-836.45,140.5,24550.62,-1990.29,-5098.88,-3679.86,611.36,12008.39,772.34
0.676,-9857.66,-2231.33,748.29,3586.11,-62.32,4286.13,-1411.33,4998.03,20878.9,9266.27,4424.48,9350.18,9305.43,-840.92,133.35,24553.08,-2032.85,-5114.7,-3679.28,602.29,12011.25,777.57
0.678,-9859.31,-2238.39,732.15,3574.27,-87.4,4252.91,-1440.3,4987.97,20866.16,9254.2,4417.51,9336.99,9298.59,-843.87,116.45,24563.14,-2110.94,-5149.62,-3679.41,579.27,12013.17,770.78
0.680,-9864.58,-2247.42,714.5,3562.11,-110.06,4221.75,-1466.01,4979.48,20853.91,9242.85,4407.5,9321.04,9289.74,-846.1,97.72,24569.44,-2170.53,-5180.96,-3680.75,560.85,12022.38,764.74
0.682,-9868.97,-2250.73,700.32,3554.46,-127.36,4201.68,-1483.26,4971.25,20846.62,9238.11,4398.87,9311.47,9284.42,-849.99,86.46,24575.16,-2211.08,-5200.22,-3683.21,561.7,12040.88,763.85
0.684,-9861.37,-2235.49,712.71,3568.41,-110.82,4217.73,-1465.65,4980.86,20856.1,9251.3,4403.52,9317.37,9291.89,-843.38,94.86,24580.03,-2179.47,-5183.5,-3678.78,578.73,12055.59,771.4
0.686,-9852.16,-2220.87,734.43,3584.01,-83.64,4247.19,-1437.17,4991.55,20867.37,9263.73,4411.03,9327.56,9298.46,-838.28,106.71,24574.31,-2121.81,-5162.09,-3677.85,583.07,12029.89,764.21
0.688,-9845.54,-2212.02,753.57,3594.74,-60.98,4274.5,-1413.97,4997.85,20872.15,9271.91,4416.21,9336.59,9302.8,-839.13,117.3,24562.82,-2073.17,-5137.86,-3682.49,589.73,11996.9,751.38
0.690,-9849.34,-2216.71,766.04,3599.03,-37.95,4305.26,-1390.68,5006.75,20882.3,9276.24,4426.67,9350.76,9305.39,-835.55,136.44,24547.49,-1983.45,-5097.4,-3683.75,603.9,11987.51,754.86
0.692,-9860.11,-2230.53,749.19,3583.39,-62.0,4285.05,-1414.46,4994.09,20868.44,9257.15,4424.04,9345.0,9294.12,-840.87,128.16,24541.23,-2022.16,-5119.58,-3691.48,591.96,11986.61,742.3
0.694,-9860.38,-2234.91,734.08,3574.31,-85.96,4254.34,-1442.85,4986.9,20856.01,9244.46,4420.28,9333.78,9286.97,-841.14,114.62,24548.34,-2097.76,-5147.96,-3697.07,583.92,12007.09,743.6
0.696,-9859.76,-2239.38,722.63,3567.65,-103.4,4227.21,-1465.56,4983.63,20849.08,9235.2,4414.96,9321.26,9280.4,-839.17,100.67,24557.82,-2156.41,-5175.95,-3698.05,562.95,12019.43,749.41
0.698,-9859.44,-2241.12,716.78,3566.4,-109.84,4216.25,-1474.5,4984.62,20850.33,9235.79,4410.13,9314.64,9278.97,-839.04,92.58,24565.42,-2181.35,-5188.69,-3694.16,551.06,12029.4,751.2
0.700,-9859.76,-2240.27,714.81,3567.52,-111.36,4215.81,-1472.85,4982.96,20851.0,9238.56,4404.68,9310.89,9278.83,-843.96,87.66,24565.33,-2188.55,-5194.68,-3693.89,551.33,12034.22,749.99
0.702,-9855.55,-2230.75,729.7,3579.81,-88.96,4240.26,-1448.8,4992.04,20859.94,9251.43,4407.59,9317.5,9285.18,-841.95,96.74,24561.66,-2140.58,-5172.51,-3691.48,571.58,12030.78,753.79
0.704,-9851.8,-2223.51,750.04,3591.48,-60.98,4275.13,-1417.46,5001.65,20872.15,9263.01,4415.81,9329.44,9292.02,-838.01,114.44,24552.54,-2063.07,-5138.35,-3687.19,596.26,12026.53,763.04
0.706,-9850.91,-2218.5,761.26,3597.33,-47.65,4299.94,-1398.5,5002.95,20877.74,9270.3,4422.56,9342.31,9299.09,-838.46,129.82,24546.69,-2011.08,-5112.25,-3684.1,609.93,12008.12,763.36
0.708,-9853.36,-2222.26,760.05,3595.32,-47.74,4302.22,-1396.49,5003.04,20877.51,9269.58,4426.05,9348.3,9302.35,-838.91,135.81,24544.81,-1993.28,-5102.32,-3683.34,607.03,11990.1,759.74
0.710,-9860.07,-2233.7,745.7,3582.94,-69.2,4276.02,-1419.16,4994.23,20866.34,9257.33,4421.22,9338.47,9294.88,-842.17,123.74,24547.8,-2041.52,-5125.52,-3685.0,599.03,12005.61,763.71
0.712,-9867.0,-2242.55,723.39,3567.56,-102.91,4236.64,-1453.71,4978.85,20848.99,9244.23,4409.51,9321.26,9285.54,-849.5,100.4,24556.48,-2139.42,-5172.06,-3690.45,570.64,12013.93,754.55
0.714,-9870.49,-2246.04,710.96,3561.62,-119.27,4213.04,-1471.91,4975.01,20843.76,9240.93,4402.09,9310.31,9282.59,-850.8,86.14,24565.73,-2196.06,-5197.85,-3692.6,549.81,12024.48,751.91
0.716,-9872.14,-2246.08,705.33,3560.01,-123.47,4204.81,-1476.38,4972.06,20843.36,9242.67,4394.84,9304.54,9281.29,-854.55,78.95,24566.94,-2209.56,-5206.57,-3696.35,540.96,12018.13,744.13
0.718,-9866.73,-2235.93,719.86,3572.43,-103.8,4225.73,-1454.29,4978.58,20853.02,9254.29,4396.05,9309.41,9286.88,-853.79,85.34,24561.93,-2169.1,-5188.87,-3694.52,553.83,12012.77,742.61
0.720,-9859.04,-2225.34,739.04,3585.67,-79.89,4254.21,-1426.71,4985.6,20862.27,9264.04,4400.97,9318.17,9291.49,-853.12,96.96,24553.48,-2116.13,-5164.73,-3692.6,577.26,12020.5,749.01
0.722,-9852.25,-2214.25,760.36,3599.26,-51.86,4291.36,-1396.89,4996.24,20875.46,9275.21,4413.58,9335.03,9299.26,-847.22,116.72,24545.52,-2043.49,-5130.22,-3691.08,596.93,12002.17,746.15
0.724,-9847.91,-2209.02,772.3,3608.33,-36.34,4314.78,-1380.98,5007.73,20887.84,9283.08,4431.41,9354.52,9308.88,-833.45,140.5,24546.82,-1982.38,-5095.12,-3683.08,619.64,11999.58,755.89
0.726,-9848.89,-2217.56,758.75,3597.69,-59.19,4290.91,-1406.33,4998.7,20877.2,9268.42,4430.38,9350.45,9303.29,-833.9,133.75,24552.18,-2033.07,-5117.16,-3682.63,608.55,12005.84,757.77
0.728,-9850.46,-2226.81,742.26,3586.74,-81.99,4260.38,-1434.0,4989.22,20865.53,9256.44,4420.59,9334.89,9295.78,-840.38,114.84,24560.14,-2108.26,-5149.62,-3684.91,576.94,12008.92,755.27
0.730,-9858.19,-2239.87,724.24,3573.95,-103.4,4231.68,-1458.23,4982.47,20855.88,9244.82,4410.63,9318.35,9286.52,-843.73,96.74,24566.31,-2165.08,-5180.06,-3686.52,551.6,12011.11,750.17
0.732,-9860.56,-2244.52,711.99,3566.0,-116.63,4216.25,-1472.58,4976.84,20850.33,9240.43,4401.42,9308.88,9282.14,-849.63,84.98,24569.93,-2200.93,-5200.09,-3688.75,540.15,12016.03,748.69
0.734,-9853.32,-2234.82,715.17,3571.36,-114.08,4218.62,-1469.54,4976.79,20850.47,9247.27,4397.44,9308.25,9285.63,-852.94,81.99,24574.54,-2216.58,-5203.71,-3687.77,544.98,12021.04,748.25
0.736,-9845.14,-2223.51,740.33,3588.21,-77.11,4255.95,-1432.03,4993.07,20865.71,9261.53,4406.29,9319.52,9293.94,-846.51,100.85,24566.85,-2121.14,-5161.55,-3681.91,583.78,12046.52,769.57
0.738,-9836.82,-2212.55,764.25,3602.43,-47.34,4292.12,-1399.4,5002.5,20876.44,9272.0,4414.42,9333.55,9300.25,-846.64,116.68,24555.76,-2050.06,-5131.65,-3679.28,607.16,12042.85,776.99
0.740,-9839.06,-2214.21,769.97,3605.07,-38.18,4310.62,-1387.86,5004.56,20880.73,9275.12,4421.71,9347.01,9304.05,-845.88,132.37,24549.1,-2004.91,-5105.76,-3678.69,623.03,12024.3,774.98
0.742,-9852.2,-2228.87,754.64,3591.7,-57.04,4293.37,-1405.52,4994.9,20871.12,9263.19,4420.24,9344.91,9298.1,-846.73,131.79,24547.4,-2022.56,-5112.51,-3681.47,616.42,12016.48,769.93
0.744,-9855.73,-2234.91,739.35,3582.22,-81.18,4264.71,-1429.57,4987.17,20861.55,9253.4,4417.42,9336.1,9294.21,-846.33,121.33,24558.04,-2084.61,-5137.5,-3681.69,592.46,12014.42,764.34
0.746,-9859.98,-2239.87,722.14,3573.24,-106.26,4231.95,-1456.17,4979.12,20850.69,9242.31,4408.97,9321.04,9286.48,-848.65,102.64,24566.98,-2156.68,-5173.49,-3683.61,571.44,12027.7,758.08
0.748,-9861.41,-2240.94,712.08,3568.99,-118.91,4215.0,-1470.34,4975.5,20845.06,9240.39,4399.99,9310.04,9281.56,-852.63,88.56,24570.87,-2201.16,-5194.63,-3687.32,558.61,12043.25,757.59
0.750,-9856.31,-2236.38,717.71,3574.63,-107.6,4223.76,-1460.06,4982.03,20850.51,9246.65,4400.57,9310.17,9282.55,-850.98,88.69,24567.38,-2177.73,-5188.24,-3688.13,557.36,12035.07,756.74
0.752,-9849.12,-2228.25,730.32,3583.16,-90.17,4241.2,-1442.0,4985.6,20852.61,9252.5,4400.08,9310.93,9281.7,-855.8,89.0,24555.67,-2151.85,-5181.45,-3694.48,556.56,12018.58,749.36
0.754,-9842.64,-2220.38,746.68,3591.25,-72.02,4262.34,-1423.09,4989.09,20855.7,9258.58,4403.79,9317.41,9284.02,-856.83,96.25,24547.98,-2119.39,-5166.56,-3696.22,582.49,12017.77,749.14
0.756,-9840.0,-2215.1,768.63,3603.28,-38.53,4300.3,-1389.79,5003.39,20872.77,9272.53,4417.33,9336.5,9293.9,-849.01,121.95,24540.56,-2017.74,-5114.39,-3689.78,617.62,12019.83,763.45
0.758,-9847.06,-2225.25,762.6,3596.57,-46.09,4299.18,-1394.03,4999.73,20870.58,9265.51,4422.47,9341.64,9292.92,-847.85,128.92,24536.54,-2002.27,-5109.7,-3688.53,611.01,12007.09,762.24
0.760,-9851.62,-2234.37,746.82,3584.37,-69.11,4272.4,-1419.29,4991.46,20858.56,9252.86,4418.76,9332.48,9287.02,-850.26,118.11,24542.62,-2062.44,-5133.93,-3689.11,586.55,12002.13,756.61
0.762,-9854.3,-2239.82,732.15,3575.74,-91.69,4243.3,-1444.86,4984.89,20851.63,9243.83,4413.17,9319.74,9282.41,-850.17,102.42,24554.37,-2130.52,-5165.89,-3687.14,556.74,12008.39,753.48
0.764,-9856.85,-2242.95,714.85,3566.44,-116.81,4213.88,-1470.92,4974.38,20841.84,9238.11,4401.24,9305.48,9278.79,-856.79,83.6,24566.94,-2210.59,-5203.4,-3688.35,540.91,12025.1,752.4
0.766,-9855.24,-2238.62,717.89,3572.43,-107.11,4223.5,-1461.22,4982.78,20852.26,9248.48,4400.75,9308.74,9285.09,-853.84,87.4,24571.94,-2188.77,-5191.06,-3682.72,548.96,12035.61,761.75
0.768,-9851.4,-2229.59,725.98,3580.3,-97.63,4237.76,-1446.43,4985.11,20857.75,9256.8,4401.86,9314.96,9291.49,-852.54,94.06,24573.33,-2168.03,-5181.4,-3677.53,567.42,12039.9,767.42
0.770,-9847.11,-2221.9,743.11,3590.05,-73.89,4265.12,-1419.96,4991.06,20865.71,9265.87,4404.99,9323.27,9296.18,-851.24,107.29,24563.58,-2102.05,-5151.94,-3677.26,585.26,12030.56,768.18
0.772,-9847.11,-2220.47,758.17,3596.17,-52.26,4293.81,-1395.91,4994.9,20873.13,9272.4,4411.97,9334.98,9300.47,-850.17,123.96,24551.78,-2028.73,-5118.73,-3677.53,606.67,12019.25,768.81
0.774,-9858.46,-2233.92,750.3,3585.67,-58.47,4293.37,-1401.05,4987.48,20867.1,9262.97,4412.59,9338.92,9296.0,-854.33,129.28,24540.52,-2007.14,-5109.34,-3684.37,613.11,12010.67,767.16
0.776,-9861.72,-2243.27,736.53,3573.87,-78.95,4269.0,-1425.86,4978.67,20853.91,9248.35,4408.48,9329.93,9287.73,-857.82,119.76,24540.78,-2054.17,-5129.32,-3691.12,601.31,12011.87,763.27
0.778,-9863.91,-2248.05,721.65,3564.08,-102.91,4238.87,-1451.84,4970.63,20842.02,9236.32,4400.52,9315.67,9279.24,-861.75,102.59,24547.67,-2125.83,-5162.98,-3695.1,578.15,12018.18,755.89
0.780,-9865.97,-2251.98,707.92,3557.46,-123.02,4212.45,-1474.41,4964.55,20833.7,9227.65,4391.94,9301.86,9272.67,-863.85,84.8,24555.45,-2191.19,-5194.5,-3697.07,552.18,12027.52,751.29
0.782,-9864.32,-2250.15,704.39,3558.35,-125.75,4208.48,-1477.23,4966.96,20837.59,9231.54,4391.85,9301.1,9274.19,-859.47,82.84,24562.91,-2203.08,-5198.88,-3693.04,551.69,12043.03,753.12
0.784,-9855.82,-2240.85,718.79,3571.23,-106.66,4228.01,-1456.75,4978.54,20850.24,9244.95,4399.45,9310.84,9282.5,-851.2,93.56,24565.82,-2163.65,-5179.39,-3686.52,567.24,12041.33,757.23
0.786,-9842.1,-2224.13,738.19,3587.19,-86.32,4250.68,-1434.94,4987.52,20860.21,9257.96,4407.36,9323.31,9292.34,-846.1,104.96,24567.38,-2132.94,-5165.62,-3681.51,582.8,12013.84,754.28
0.788,-9830.3,-2205.98,766.66,3608.91,-47.83,4292.79,-1395.15,5005.09,20879.26,9279.37,4423.32,9343.39,9308.34,-835.11,130.58,24566.71,-2045.54,-5117.7,-3671.81,615.92,12014.06,769.7
0.790,-9834.28,-2207.32,776.9,3613.56,-31.38,4318.49,-1374.5,5012.24,20889.67,9283.13,4434.81,9358.0,9313.7,-829.07,149.89,24557.06,-1967.67,-5085.42,-3667.79,635.06,12024.93,781.19
0.792,-9843.44,-2218.9,761.12,3599.57,-53.73,4296.77,-1396.27,4999.68,20875.37,9269.0,4427.61,9351.12,9306.01,-838.37,141.17,24555.31,-2010.67,-5101.74,-3671.99,624.91,12027.25,776.1
0.794,-9850.99,-2230.26,742.03,3584.95,-80.15,4264.89,-1424.83,4985.96,20858.92,9252.73,4414.51,9334.09,9294.53,-849.01,121.01,24555.76,-2080.01,-5135.05,-3677.62,600.68,12033.46,773.95
0.796,-9858.19,-2242.64,718.61,3568.14,-112.92,4226.54,-1459.39,4969.96,20841.35,9236.23,4398.11,9312.9,9281.74,-860.05,95.13,24560.41,-2173.26,-5181.31,-3684.51,556.11,12024.93,762.78
0.798,-9864.9,-2251.22,703.23,3558.53,-127.27,4207.45,-1475.93,4964.81,20836.03,9231.67,4388.85,9302.75,9276.56,-863.09,83.64,24565.73,-2208.93,-5197.76,-3686.88,523.08,12008.97,752.81
0.800,-9867.67,-2251.09,702.87,3559.02,-124.37,4210.35,-1471.95,4966.16,20839.02,9234.53,4387.92,9302.17,9276.24,-863.09,81.76,24562.73,-2194.14,-5197.41,-3690.14,515.03,11984.02,736.13
0.802,-9861.86,-2241.84,716.55,3568.5,-106.04,4230.02,-1452.73,4971.61,20846.35,9243.74,4390.33,9307.18,9279.68,-864.16,87.53,24558.49,-2161.28,-5183.55,-3689.83,545.78,11999.58,743.37
0.804,-9855.82,-2229.41,735.77,3581.6,-80.11,4258.14,-1424.92,4979.79,20854.76,9255.46,4395.43,9317.59,9287.28,-863.58,101.57,24552.01,-2106.83,-5153.15,-3686.79,584.1,12022.06,758.44
0.806,-9857.21,-2227.66,747.58,3586.61,-63.43,4283.67,-1404.4,4984.71,20861.29,9260.91,4403.87,9331.72,9291.71,-860.01,120.07,24542.22,-2036.02,-5121.63,-3684.73,608.28,12015.72,763.4
0.808,-9864.32,-2238.71,742.17,3579.9,-69.07,4280.63,-1409.64,4981.13,20856.23,9254.74,4405.22,9334.36,9288.85,-859.51,126.11,24537.16,-2018.23,-5110.99,-3685.4,615.52,12017.5,771.14
0.810,-9867.13,-2248.09,729.29,3569.93,-87.89,4256.44,-1431.23,4973.44,20845.86,9241.82,4402.85,9325.42,9280.94,-859.6,115.87,24539.04,-2063.02,-5133.12,-3688.31,596.93,12015.58,766.66
0.812,-9869.37,-2254.13,711.63,3559.65,-115.29,4223.18,-1460.11,4963.12,20833.12,9228.23,4394.98,9309.46,9272.22,-862.29,96.65,24547.13,-2140.05,-5171.39,-3692.24,565.45,12005.3,748.38
0.814,-9871.74,-2257.17,698.27,3553.44,-133.66,4200.47,-1478.88,4959.58,20827.53,9224.83,4387.42,9298.15,9269.27,-862.15,81.94,24556.97,-2194.14,-5197.85,-3694.48,543.24,12004.85,734.75
0.816,-9868.25,-2251.67,699.88,3557.95,-128.39,4204.5,-1474.05,4966.24,20835.54,9233.68,4389.7,9300.52,9274.9,-858.04,83.33,24562.51,-2186.81,-5195.57,-3690.45,534.83,12008.07,738.05
0.818,-9858.46,-2236.6,715.88,3572.61,-108.72,4226.63,-1451.25,4975.95,20848.19,9248.3,4395.47,9310.53,9284.83,-854.55,93.34,24566.27,-2159.27,-5179.39,-3683.03,559.42,12022.65,751.38
0.820,-9851.89,-2224.09,732.69,3583.83,-90.12,4250.23,-1430.78,4980.86,20854.89,9258.27,4398.2,9318.44,9290.32,-856.21,101.43,24561.08,-2127.89,-5163.16,-3683.34,572.2,12009.82,749.95
0.822,-9846.12,-2214.57,754.06,3597.07,-60.84,4285.68,-1401.81,4991.64,20867.19,9271.24,4408.88,9334.36,9300.52,-852.9,119.85,24554.02,-2055.65,-5126.55,-3680.71,600.55,12009.86,760.76
0.824,-9842.77,-2213.9,766.58,3603.5,-42.65,4309.15,-1383.22,5004.02,20879.93,9278.39,4425.06,9353.94,9310.89,-841.5,142.6,24552.85,-1992.12,-5092.93,-3671.81,620.62,12021.57,781.1
0.826,-9848.27,-2223.73,754.73,3592.86,-60.84,4289.3,-1402.17,4997.31,20870.58,9265.42,4425.29,9349.38,9304.41,-841.86,136.88,24554.42,-2027.97,-5109.92,-3673.29,604.08,12024.93,788.97
0.828,-9856.05,-2233.43,731.21,3577.66,-94.5,4249.02,-1437.71,4981.09,20852.34,9249.33,4412.37,9330.65,9293.45,-852.45,112.34,24561.88,-2132.0,-5154.85,-3680.71,570.68,12016.79,777.44
0.830,-9858.86,-2237.54,718.56,3572.12,-110.37,4225.37,-1456.71,4978.18,20847.2,9244.5,4405.13,9318.89,9289.56,-851.69,97.81,24571.18,-2186.27,-5179.3,-3681.29,546.68,12019.61,767.38
0.832,-9864.23,-2242.28,710.07,3566.27,-118.29,4215.72,-1465.25,4977.02,20845.46,9241.19,4399.18,9311.2,9283.75,-853.97,89.14,24569.26,-2196.33,-5192.27,-3685.0,538.68,12020.63,754.01
0.834,-9862.89,-2236.83,712.17,3569.8,-114.53,4219.47,-1460.69,4976.75,20844.52,9243.83,4394.4,9307.22,9281.52,-859.2,85.12,24564.3,-2193.87,-5191.77,-3691.52,547.3,12024.93,742.57
0.836,-9850.82,-2221.63,736.4,3588.3,-81.45,4253.45,-1426.8,4991.1,20859.36,9258.27,4404.68,9317.37,9289.12,-852.36,98.97,24554.02,-2119.93,-5162.54,-3695.37,570.86,12027.29,742.35
0.838,-9848.0,-2214.92,750.88,3594.74,-64.19,4275.62,-1408.34,4994.01,20862.4,9262.47,4409.42,9325.55,9291.22,-852.9,108.9,24543.33,-2076.07,-5144.34,-3698.81,592.77,12019.56,747.58
0.840,-9851.84,-2216.04,759.42,3599.84,-47.83,4300.97,-1389.47,5001.92,20872.46,9270.03,4419.79,9341.69,9298.68,-847.44,130.8,24538.37,-2004.91,-5104.96,-3691.88,619.99,12019.29,762.91
0.842,-9860.11,-2227.17,749.28,3590.54,-60.89,4289.79,-1401.1,4996.73,20866.74,9260.6,4421.35,9341.51,9295.02,-846.77,132.95,24536.81,-2006.47,-5105.99,-3689.74,619.14,12022.78,771.05
0.844,-9865.75,-2236.16,725.36,3572.21,-99.6,4246.52,-1442.0,4977.69,20844.83,9241.69,4408.48,9322.29,9283.08,-857.14,108.94,24543.51,-2110.94,-5153.73,-3696.4,586.33,12016.03,755.44
0.846,-9865.75,-2239.91,712.17,3565.28,-116.41,4219.92,-1463.55,4974.2,20836.7,9234.53,4400.21,9308.52,9277.45,-857.9,92.98,24553.21,-2172.05,-5180.33,-3698.23,558.7,12016.66,747.26
0.848,-9865.21,-2241.12,705.15,3563.72,-123.02,4209.82,-1471.68,4973.98,20836.97,9234.27,4396.81,9302.93,9275.3,-856.47,84.18,24558.71,-2193.33,-5196.15,-3697.47,534.16,12008.74,739.22
0.850,-9858.68,-2232.31,711.41,3572.21,-114.44,4218.62,-1461.09,4979.3,20845.46,9245.17,4398.38,9307.49,9283.62,-853.48,88.74,24567.12,-2183.94,-5188.47,-3688.84,547.22,12022.51,748.74
0.852,-9853.95,-2222.48,727.24,3584.15,-95.08,4240.71,-1439.05,4985.15,20853.55,9255.59,4401.19,9314.2,9290.19,-852.09,97.59,24565.73,-2147.91,-5172.01,-3684.1,568.81,12030.2,756.2
0.854,-9851.53,-2216.13,743.37,3593.58,-73.0,4266.01,-1415.45,4989.98,20858.74,9265.16,4405.89,9323.85,9296.49,-850.13,110.33,24559.38,-2095.88,-5145.6,-3682.32,591.38,12030.2,763.04
0.856,-9845.68,-2208.22,764.88,3607.75,-42.74,4304.45,-1381.83,5005.63,20877.24,9281.34,4423.01,9347.63,9312.09,-838.82,139.83,24558.0,-2001.69,-5095.17,-3671.32,625.89,12035.7,781.28
0.858,-9850.99,-2216.4,763.27,3603.1,-43.59,4308.66,-1379.55,5006.39,20879.39,9277.72,4430.7,9355.81,9313.35,-835.28,149.85,24554.24,-1972.14,-5083.55,-3668.1,622.9,12026.76,786.51
0.860,-9858.33,-2230.35,738.32,3581.82,-80.82,4267.31,-1420.41,4987.26,20856.95,9255.41,4419.97,9338.25,9298.68,-845.88,127.14,24556.92,-2070.98,-5129.1,-3676.15,587.67,12006.11,769.03
0.862,-9860.43,-2236.07,719.28,3569.62,-108.85,4229.93,-1453.53,4975.9,20842.69,9243.25,4408.26,9320.81,9290.9,-853.21,105.23,24567.43,-2166.47,-5169.56,-3679.59,552.71,12008.47,757.9
0.864,-9859.94,-2237.36,711.14,3567.52,-116.32,4214.82,-1464.44,4978.81,20843.81,9242.85,4406.33,9315.54,9289.97,-848.65,97.72,24576.99,-2197.67,-5184.31,-3676.06,544.85,12025.01,755.67
0.866,-9858.64,-2233.92,709.18,3569.17,-118.73,4212.81,-1467.48,4981.94,20847.03,9246.42,4405.66,9315.67,9290.28,-845.66,95.8,24580.39,-2205.85,-5186.99,-3678.34,550.79,12033.91,753.66
0.868,-9854.71,-2224.58,725.05,3581.46,-96.43,4237.35,-1443.61,4992.53,20859.01,9257.91,4410.31,9322.47,9294.66,-840.11,105.59,24574.45,-2148.14,-5164.15,-3679.05,576.09,12039.36,758.89
0.870,-9848.49,-2214.12,743.02,3593.58,-73.27,4264.71,-1418.4,5000.04,20868.75,9267.39,4417.06,9331.94,9299.49,-837.61,116.85,24565.64,-2093.91,-5141.66,-3680.35,598.94,12039.86,763.85
0.872,-9845.81,-2207.73,764.43,3606.95,-39.7,4304.99,-1383.35,5012.74,20884.17,9278.43,4428.64,9348.44,9306.42,-831.84,138.76,24552.09,-1993.24,-5096.91,-3678.38,620.08,12033.91,774.04
0.874,-9855.42,-2216.4,755.35,3598.09,-53.82,4301.32,-1391.8,5001.65,20875.95,9270.56,4427.79,9351.93,9303.42,-839.04,141.04,24546.37,-1996.1,-5097.81,-3681.47,615.84,12020.9,774.22
0.876,-9863.87,-2227.75,741.99,3585.94,-71.17,4280.49,-1409.5,4993.87,20864.82,9258.58,4423.01,9343.21,9296.0,-843.15,132.9,24545.17,-2026.01,-5110.46,-3684.86,603.41,12021.39,777.75
0.878,-9868.56,-2236.65,720.22,3570.38,-103.31,4240.71,-1443.7,4977.69,20845.1,9241.46,4408.48,9322.73,9284.15,-854.86,107.47,24549.86,-2122.57,-5158.42,-3693.54,566.71,12010.8,762.11
0.880,-9868.79,-2237.72,707.3,3565.06,-122.44,4213.57,-1465.92,4971.79,20836.97,9235.43,4398.73,9307.67,9279.19,-858.75,89.9,24561.08,-2190.56,-5188.06,-3693.76,544.0,12013.21,755.27
0.882,-9860.43,-2230.93,711.32,3572.12,-116.68,4217.19,-1461.22,4981.22,20845.82,9243.25,4402.67,9310.35,9284.42,-850.31,92.49,24569.8,-2185.42,-5185.69,-3687.41,544.31,12018.35,755.76
0.884,-9845.27,-2212.24,727.86,3589.11,-99.2,4235.79,-1441.37,4992.44,20858.51,9258.9,4410.49,9319.96,9297.16,-842.75,102.33,24579.14,-2165.03,-5172.69,-3677.85,565.32,12035.34,764.83
0.886,-9839.51,-2200.93,744.13,3601.04,-78.28,4258.9,-1417.95,4995.61,20864.86,9268.78,4408.75,9323.54,9301.68,-848.87,106.98,24571.45,-2126.59,-5157.13,-3680.93,580.3,12038.56,763.4
0.888,-9838.43,-2196.46,760.76,3610.52,-54.45,4288.67,-1393.14,5000.76,20871.79,9275.8,4411.92,9330.96,9304.49,-852.76,118.46,24558.49,-2063.29,-5129.9,-3684.1,599.74,12028.41,765.73
0.890,-9842.68,-2198.92,767.87,3612.85,-41.08,4311.29,-1376.96,5004.91,20877.38,9280.44,4419.7,9344.86,9309.41,-850.66,135.05,24550.98,-2001.87,-5098.61,-3681.73,618.38,12021.39,771.54
0.892,-9850.64,-2209.11,756.03,3601.98,-58.38,4295.2,-1393.45,4996.02,20868.3,9268.73,4418.98,9343.74,9303.82,-851.69,133.84,24550.49,-2021.85,-5105.59,-3681.51,609.67,12016.21,767.65
0.894,-9856.31,-2219.08,736.27,3586.47,-88.24,4258.63,-1426.89,4983.19,20852.39,9252.68,4411.83,9330.96,9294.35,-855.13,118.06,24558.04,-2101.2,-5140.72,-3682.72,585.97,12015.63,761.26
0.896,-9854.48,-2221.58,723.79,3579.54,-108.09,4230.43,-1452.15,4980.77,20845.73,9246.65,4407.94,9320.72,9292.07,-851.15,105.23,24574.4,-2173.93,-5169.24,-3679.5,563.76,12025.46,764.47
0.898,-9848.09,-2216.94,725.31,3585.35,-105.68,4230.65,-1449.6,4992.22,20857.93,9256.8,4415.72,9326.58,9300.02,-836.04,111.45,24589.96,-2175.18,-5166.96,-3666.71,572.7,12053.22,780.21
0.900,-9852.38,-2220.2,719.1,3581.38,-111.58,4225.64,-1453.62,4988.06,20855.92,9256.26,4410.36,9322.6,9296.31,-840.29,105.54,24587.81,-2184.88,-5175.37,-3672.44,570.73,12048.93,773.5
0.902,-9850.37,-2215.33,733.09,3589.6,-88.56,4248.44,-1431.14,4996.11,20864.73,9264.49,4411.88,9327.52,9297.74,-841.27,111.76,24575.39,-2128.38,-5151.5,-3679.5,577.08,12026.09,762.11
0.904,-9847.78,-2211.35,749.99,3597.2,-66.52,4277.23,-1406.95,5001.11,20872.64,9270.21,4415.05,9336.01,9299.26,-843.55,120.3,24559.83,-2070.98,-5131.78,-3684.51,583.2,12008.03,753.92
0.906,-9851.04,-2212.02,759.24,3600.2,-51.05,4301.68,-1389.12,5002.32,20878.09,9274.54,4418.9,9347.01,9301.59,-847.62,133.71,24547.8,-2014.74,-5103.75,-3687.68,602.96,12017.46,765.01
0.908,-9857.83,-2222.48,753.92,3592.77,-56.15,4299.49,-1394.26,5000.49,20875.68,9267.21,4422.69,9351.25,9298.33,-847.31,139.39,24541.14,-1999.86,-5096.56,-3690.32,607.97,12020.19,770.73
0.910,-9856.27,-2227.62,744.49,3585.04,-74.57,4276.29,-1416.74,4994.99,20867.86,9254.78,4421.09,9343.88,9291.22,-847.0,129.55,24545.39,-2056.58,-5120.92,-3692.55,590.94,12019.56,769.88
0.912,-9853.1,-2227.57,731.97,3578.96,-98.39,4246.74,-1443.83,4988.37,20860.3,9245.8,4414.42,9332.43,9285.63,-848.56,111.4,24557.82,-2143.8,-5160.53,-3692.24,560.89,12022.06,768.45
0.914,-9856.85,-2230.39,716.87,3571.54,-120.16,4220.37,-1467.35,4980.01,20853.55,9241.37,4403.16,9319.29,9282.14,-854.02,93.88,24569.26,-2214.79,-5189.36,-3693.67,544.4,12029.84,763.49
0.916,-9855.87,-2226.19,718.34,3577.8,-114.31,4226.4,-1458.32,4987.17,20862.67,9251.07,4404.81,9321.53,9288.98,-849.32,97.72,24575.88,-2198.07,-5182.3,-3688.44,551.28,12032.97,765.28
0.918,-9850.86,-2217.02,734.17,3589.96,-91.69,4250.68,-1432.84,4998.25,20875.55,9265.33,4411.92,9331.14,9297.34,-843.38,108.54,24575.7,-2148.18,-5162.27,-3683.84,568.09,12032.21,766.44
0.920,-9844.42,-2207.28,752.76,3600.69,-67.55,4277.9,-1407.8,5006.12,20883.95,9275.88,4418.76,9341.38,9304.76,-841.27,120.88,24570.29,-2094.85,-5137.91,-3681.11,594.24,12034.0,768.18
0.922,-9843.22,-2202.18,767.25,3609.0,-45.69,4305.44,-1383.71,5011.13,20889.76,9283.26,4424.26,9351.43,9310.84,-841.99,136.21,24559.61,-2025.65,-5105.67,-3680.62,621.07,12030.69,771.63
0.924,-9849.61,-2208.31,765.64,3605.83,-42.29,4313.71,-1376.38,5010.1,20889.99,9282.59,4430.12,9358.68,9313.21,-841.72,148.73,24552.85,-1975.04,-5082.65,-3674.22,631.39,12027.61,779.32
0.926,-9857.66,-2216.89,747.89,3591.52,-69.6,4285.9,-1401.14,4997.67,20873.22,9267.61,4423.99,9349.6,9306.91,-844.99,138.71,24557.64,-2026.95,-5105.63,-3670.65,610.65,12026.8,776.14
0.928,-9862.35,-2223.15,725.81,3577.75,-102.19,4245.76,-1435.25,4982.83,20854.45,9252.82,4411.25,9332.12,9298.46,-851.51,118.06,24568.77,-2117.69,-5145.1,-3672.26,580.97,12022.29,764.92
0.930,-9863.87,-2225.43,710.61,3569.71,-121.86,4216.92,-1458.85,4975.63,20844.03,9244.59,4401.86,9315.8,9292.02,-854.42,100.94,24576.91,-2177.28,-5174.25,-3673.46,552.58,12011.65,755.0
0.932,-9862.57,-2226.64,707.25,3569.75,-123.96,4211.87,-1463.77,4978.81,20847.96,9247.41,4403.2,9315.49,9293.27,-849.1,99.11,24584.37,-2188.64,-5180.55,-3669.71,544.49,12013.57,753.79
0.934,-9854.3,-2216.58,717.98,3580.26,-110.6,4226.09,-1450.72,4987.39,20857.35,9258.49,4407.54,9321.62,9299.71,-844.72,104.11,24588.53,-2175.63,-5171.39,-3665.51,556.38,12028.68,759.69
0.936,-9847.91,-2206.56,734.08,3591.43,-92.31,4248.98,-1431.14,4992.44,20863.61,9266.27,4410.76,9327.56,9302.3,-846.64,110.51,24581.29,-2143.17,-5158.65,-3666.98,576.36,12031.09,761.48
0.938,-9834.28,-2189.85,767.51,3614.81,-48.37,4297.26,-1388.13,5012.96,20884.98,9286.61,4426.05,9347.77,9315.27,-836.89,137.15,24574.31,-2039.78,-5103.98,-3660.37,615.43,12035.48,777.21
0.940,-9838.75,-2194.36,776.63,3617.14,-32.99,4323.32,-1367.79,5018.1,20893.43,9287.51,4435.84,9360.87,9315.94,-833.32,154.81,24558.26,-1957.57,-5073.44,-3661.39,633.63,12028.99,782.0
0.942,-9848.72,-2207.19,758.48,3601.72,-59.55,4300.12,-1392.69,5003.39,20879.12,9272.53,4431.05,9355.23,9307.58,-839.84,145.24,24555.98,-2008.3,-5094.59,-3668.64,622.67,12026.22,776.68
0.944,-9853.41,-2215.1,742.35,3590.18,-85.65,4269.18,-1420.54,4992.17,20866.61,9259.7,4422.69,9341.96,9299.8,-845.21,127.23,24561.26,-2088.46,-5129.73,-3674.36,588.57,12022.15,767.16
0.946,-9858.37,-2222.66,723.7,3578.69,-111.98,4235.92,-1449.11,4981.71,20855.16,9248.3,4411.03,9323.72,9290.5,-852.09,105.77,24568.72,-2171.38,-5169.24,-3678.92,557.68,12024.48,758.44
0.948,-9861.41,-2225.52,715.39,3576.41,-117.12,4227.16,-1454.7,4982.78,20857.31,9249.2,4406.15,9317.37,9288.54,-851.24,98.3,24573.6,-2187.12,-5178.09,-3678.74,547.53,12029.62,758.04
0.950,-9860.43,-2221.45,714.54,3578.38,-118.51,4226.89,-1453.8,4981.44,20859.27,9252.33,4402.0,9316.48,9288.58,-852.58,94.37,24573.91,-2195.21,-5184.67,-3680.39,547.26,12027.79,755.62
0.952,-9856.94,-2212.42,729.02,3589.51,-97.19,4249.33,-1431.54,4987.3,20867.95,9263.14,4403.61,9322.87,9293.54,-851.47,102.91,24568.37,-2149.75,-5162.54,-3679.77,574.48,12038.43,766.8
0.954,-9851.62,-2204.02,748.83,3601.09,-72.06,4279.11,-1405.3,4995.44,20877.07,9272.22,4410.94,9333.42,9299.22,-849.1,117.44,24559.43,-2086.4,-5134.37,-3679.63,601.17,12037.26,771.09
0.956,-9848.13,-2198.12,766.13,3612.22,-46.54,4313.53,-1376.96,5007.64,20889.85,9282.86,4423.72,9352.33,9307.98,-842.84,140.41,24551.11,-2000.88,-5094.36,-3674.36,621.02,12021.48,774.31
0.958,-9852.6,-2204.78,759.15,3604.26,-54.99,4307.85,-1384.56,5002.9,20884.49,9275.71,4427.08,9357.24,9306.86,-841.86,146.54,24550.08,-1996.64,-5090.25,-3674.22,621.69,12017.73,777.13
0.960,-9856.76,-2215.86,745.12,3590.76,-74.48,4280.72,-1407.98,4994.63,20870.9,9260.6,4422.25,9345.04,9297.34,-844.94,133.93,24550.31,-2042.99,-5112.83,-3679.14,598.76,12013.08,771.85
0.962,-9857.83,-2220.78,725.36,3578.07,-105.68,4241.42,-1443.3,4981.8,20854.09,9245.89,4411.97,9327.03,9288.54,-851.02,110.69,24561.17,-2143.76,-5159.36,-3682.72,570.55,12028.05,769.03
0.964,-9855.78,-2219.89,714.85,3573.42,-119.54,4220.37,-1461.0,4980.55,20849.93,9245.17,4405.62,9317.06,9288.0,-851.91,97.45,24573.69,-2202.18,-5181.58,-3681.38,556.29,12047.1,771.9
0.966,-9859.13,-2221.85,711.81,3572.61,-118.82,4219.61,-1460.55,4983.59,20852.84,9248.12,4404.77,9316.03,9288.4,-849.68,96.78,24574.85,-2190.43,-5180.78,-3679.05,562.77,12045.62,771.05
0.968,-9855.6,-2213.05,723.08,3582.72,-102.82,4237.26,-1443.12,4989.62,20858.07,9256.04,4407.14,9320.32,9292.42,-847.89,103.22,24572.12,-2155.11,-5165.44,-3678.29,568.27,12026.4,765.37
0.970,-9845.99,-2199.9,744.8,3598.36,-74.83,4267.71,-1413.88,4998.88,20866.61,9267.12,4413.71,9329.84,9298.5,-845.79,114.93,24564.79,-2099.01,-5141.66,-3676.73,576.18,12012.99,761.35
0.972,-9844.07,-2195.61,760.05,3606.28,-54.36,4296.14,-1391.66,5002.72,20871.52,9273.65,4418.9,9340.97,9302.84,-848.38,128.48,24555.81,-2042.86,-5114.66,-3675.34,599.88,12009.91,763.4
0.974,-9848.8,-2202.63,763.94,3605.56,-45.91,4310.58,-1382.19,5005.85,20875.77,9272.84,4427.17,9351.57,9305.48,-845.43,142.87,24548.65,-1991.72,-5086.99,-3673.46,625.36,12018.44,771.94
0.976,-9852.78,-2211.79,752.27,3594.52,-64.69,4288.09,-1402.97,4998.57,20866.69,9258.94,4426.41,9345.13,9297.88,-846.68,133.89,24547.31,-2034.32,-5109.47,-3679.72,604.44,12017.68,768.23
0.978,-9854.57,-2214.79,736.18,3585.85,-92.67,4254.7,-1433.28,4988.51,20854.0,9248.93,4419.66,9333.06,9292.74,-849.41,117.75,24561.04,-2122.07,-5146.53,-3679.86,575.16,12015.4,759.6
0.980,-9854.17,-2216.0,725.94,3582.14,-106.93,4233.69,-1451.39,4988.37,20852.26,9246.74,4415.9,9324.66,9291.35,-846.28,106.93,24575.21,-2177.6,-5168.66,-3675.16,553.92,12025.01,758.57
0.982,-9855.51,-2217.25,718.97,3579.59,-112.74,4225.42,-1459.12,4989.22,20852.84,9247.5,4413.13,9321.17,9290.5,-843.82,102.95,24580.17,-2189.93,-5175.64,-3673.15,554.68,12035.34,761.43
0.984,-9852.6,-2210.77,726.34,3585.49,-100.9,4237.89,-1446.69,4994.32,20859.14,9254.11,4413.84,9322.73,9293.05,-841.9,107.33,24577.67,-2158.82,-5163.97,-3671.54,572.38,12040.8,764.83
0.986,-9845.68,-2199.01,745.03,3599.44,-77.74,4263.73,-1422.55,5004.02,20870.49,9267.21,4421.35,9332.88,9301.77,-837.34,120.74,24576.15,-2111.97,-5139.65,-3667.34,597.86,12040.04,769.75
0.988,-9831.64,-2181.84,773.64,3619.24,-43.09,4304.41,-1385.76,5019.44,20889.4,9285.54,4435.66,9354.34,9316.07,-829.07,145.51,24574.85,-2033.79,-5100.31,-3658.71,634.7,12041.38,780.93
0.990,-9838.08,-2188.19,778.51,3617.67,-30.8,4324.3,-1372.13,5021.14,20892.49,9286.08,4439.28,9364.4,9316.65,-830.68,159.86,24561.39,-1968.16,-5069.6,-3662.74,643.86,12022.38,779.85
0.992,-9854.71,-2211.62,758.08,3596.66,-54.4,4301.59,-1395.06,5004.69,20876.66,9265.42,4429.13,9353.0,9301.19,-842.17,146.67,24547.45,-1990.69,-5088.82,-3674.05,605.87,11992.29,763.94
0.994,-9864.09,-2224.49,731.71,3578.25,-93.88,4258.19,-1434.04,4983.28,20854.45,9246.56,4412.59,9332.52,9288.13,-858.84,118.87,24552.09,-2103.79,-5140.01,-3681.15,575.42,11998.01,757.55
0.996,-9858.68,-2219.04,723.08,3578.92,-111.54,4234.45,-1452.24,4981.53,20852.75,9247.36,4408.57,9324.43,9291.35,-857.37,107.91,24572.21,-2181.62,-5165.67,-3673.42,566.08,12035.21,770.51
0.998,-9861.05,-2221.27,717.04,3577.8,-115.42,4228.19,-1455.05,4984.71,20857.26,9250.09,4406.11,9320.72,9291.62,-854.15,103.67,24578.38,-2188.59,-5171.93,-3669.89,557.9,12045.85,775.78
1.000,-9860.47,-2217.38,718.47,3581.33,-110.6,4233.91,-1447.41,4989.18,20863.39,9257.47,4406.65,9323.63,9295.24,-851.15,105.77,24582.4,-2179.38,-5167.9,-3666.18,562.28,12042.36,776.23
1.002,-9858.51,-2207.55,733.32,3592.46,-90.12,4257.02,-1423.98,4996.11,20871.88,9268.73,4409.55,9330.87,9300.69,-850.66,112.47,24576.91,-2137.09,-5153.02,-3666.62,570.82,12034.45,775.29
1.004,-9854.84,-2199.14,750.93,3602.92,-67.64,4285.63,-1399.62,5002.72,20878.99,9277.63,4414.51,9340.48,9305.88,-850.35,123.96,24567.38,-2085.37,-5128.21,-3667.88,602.96,12044.6,780.66
1.006,-9854.84,-2196.24,764.7,3610.66,-45.87,4316.21,-1374.81,5009.43,20887.88,9284.56,4423.63,9354.7,9310.8,-847.98,142.25,24555.13,-2007.59,-5092.53,-3669.84,619.41,12025.6,777.97
1.008,-9862.13,-2207.01,758.35,3602.56,-52.75,4310.94,-1381.38,5005.85,20882.3,9276.02,4426.05,9356.48,9306.86,-847.89,145.64,24548.52,-1997.53,-5087.66,-3673.6,616.28,12016.83,776.41
1.010,-9864.09,-2215.55,742.84,3588.84,-72.24,4277.32,-1412.23,4993.69,20865.26,9261.04,4419.97,9344.41,9298.5,-852.23,130.36,24555.13,-2074.29,-5122.08,-3676.06,594.51,12027.16,775.07
1.012,-9865.57,-2221.94,729.02,3576.5,-78.86,4241.06,-1443.79,4983.28,20849.93,9247.1,4410.98,9327.65,9290.37,-855.8,111.0,24565.37,-2154.4,-5157.75,-3675.88,569.3,12036.01,772.3
1.014,-9864.58,-2226.1,718.34,3569.66,-93.7,4216.12,-1466.5,4978.14,20841.21,9240.17,4403.47,9314.37,9284.96,-857.23,96.56,24573.91,-2208.44,-5181.98,-3675.83,552.54,12042.09,768.81
1.016,-9856.58,-2220.2,722.05,3574.54,-86.9,4220.23,-1460.06,4985.29,20847.03,9246.6,4406.33,9316.07,9288.98,-849.46,100.76,24578.16,-2187.12,-5174.29,-3669.31,558.35,12050.59,776.72
1.018,-9846.26,-2205.18,737.38,3586.29,-70.72,4238.2,-1441.51,4992.35,20855.07,9258.14,4411.25,9323.63,9296.67,-845.3,108.94,24581.2,-2159.8,-5161.11,-3663.5,574.04,12054.7,786.96
1.020,-9836.87,-2192.71,761.61,3603.95,-39.2,4274.01,-1407.09,5006.12,20870.23,9273.6,4421.62,9338.2,9307.53,-836.98,129.24,24577.4,-2082.51,-5123.33,-3656.16,601.57,12052.87,802.03
1.022,-9838.97,-2193.06,773.42,3608.06,-22.17,4300.07,-1386.97,5008.0,20874.03,9279.06,4428.06,9349.33,9311.25,-836.85,144.48,24566.53,-2018.59,-5094.59,-3655.49,623.39,12036.5,804.93
1.024,-9848.0,-2203.3,771.94,3603.73,-19.85,4310.0,-1381.16,5008.98,20875.55,9276.24,4434.09,9358.27,9311.96,-835.28,157.58,24558.4,-1971.42,-5073.22,-3655.72,627.01,12021.13,800.55
1.026,-9850.28,-2209.78,759.02,3594.16,-42.11,4286.22,-1403.38,5000.89,20866.61,9265.42,4432.75,9353.45,9307.67,-837.56,149.71,24563.85,-2026.81,-5095.12,-3658.27,613.15,12024.03,786.83
1.028,-9848.13,-2210.72,749.5,3591.75,-57.98,4263.86,-1419.65,4998.43,20863.25,9260.77,4430.38,9346.65,9306.1,-835.55,140.28,24574.54,-2081.8,-5118.1,-3657.15,602.29,12048.31,784.9
1.030,-9848.18,-2211.44,731.53,3584.82,-85.38,4231.1,-1447.99,4987.79,20851.99,9251.97,4417.51,9330.65,9299.98,-843.73,116.5,24584.86,-2179.3,-5161.78,-3663.81,564.69,12047.37,770.87
1.032,-9845.23,-2206.92,731.04,3588.66,-83.01,4232.66,-1446.02,4993.02,20858.92,9258.05,4415.94,9330.69,9302.84,-841.63,114.58,24588.57,-2181.26,-5162.67,-3665.51,555.89,12042.36,765.23
1.034,-9845.85,-2203.03,732.65,3592.1,-79.97,4238.7,-1439.85,4991.59,20860.17,9262.25,4410.22,9328.86,9301.45,-846.73,112.21,24585.31,-2173.35,-5161.51,-3668.41,561.61,12041.73,764.61
1.036,-9839.68,-2192.3,752.72,3607.12,-50.83,4272.45,-1407.27,5003.04,20875.28,9275.44,4416.66,9339.32,9308.52,-842.48,126.96,24577.35,-2102.9,-5130.22,-3665.55,587.85,12045.62,773.95
1.038,-9837.63,-2186.18,767.96,3616.56,-30.04,4301.77,-1382.5,5008.4,20883.82,9283.26,4423.23,9350.85,9313.84,-841.77,140.32,24568.28,-2045.86,-5105.18,-3665.33,611.68,12038.87,779.85
1.040,-9843.8,-2189.17,771.31,3615.89,-22.62,4318.98,-1371.59,5010.37,20887.21,9286.17,4429.62,9362.03,9316.97,-841.27,155.08,24561.04,-1994.49,-5077.91,-3662.69,631.48,12035.7,786.96
1.042,-9850.95,-2199.59,760.63,3606.28,-35.9,4306.91,-1383.53,5006.3,20880.95,9276.11,4430.79,9361.36,9311.78,-840.78,155.17,24557.59,-2003.79,-5082.88,-3662.74,623.7,12035.34,789.73
1.044,-9853.86,-2207.28,740.47,3591.08,-68.13,4269.14,-1418.98,4990.83,20862.0,9259.03,4418.76,9343.48,9299.76,-850.89,132.01,24562.15,-2099.14,-5125.75,-3671.05,593.35,12031.01,777.93
1.046,-9854.39,-2213.54,727.73,3582.09,-85.34,4240.93,-1442.22,4985.96,20853.1,9249.29,4410.36,9327.79,9291.08,-853.88,113.06,24567.29,-2158.95,-5157.26,-3675.25,568.99,12038.78,775.07
1.048,-9858.73,-2220.47,715.48,3574.22,-98.93,4223.94,-1458.94,4981.18,20848.28,9243.3,4402.76,9317.73,9284.87,-856.92,100.14,24569.98,-2194.14,-5177.29,-3679.45,555.35,12036.37,769.48
1.050,-9860.03,-2222.61,714.85,3573.33,-97.72,4224.88,-1459.21,4982.25,20850.06,9244.55,4401.46,9316.16,9283.89,-855.18,100.4,24569.57,-2186.54,-5175.95,-3679.59,564.92,12035.34,766.89
1.052,-9850.23,-2211.21,737.79,3588.17,-66.92,4254.43,-1431.32,4996.69,20864.15,9259.12,4411.3,9327.11,9293.01,-847.31,114.58,24567.83,-2126.54,-5146.04,-3674.76,587.45,12038.56,772.79
1.054,-9839.51,-2197.71,763.8,3605.16,-33.93,4291.58,-1398.19,5008.94,20878.23,9271.01,4423.77,9341.64,9300.87,-840.25,132.68,24559.61,-2046.7,-5113.68,-3670.83,610.56,12036.68,779.45
1.056,-9841.88,-2196.33,772.43,3607.44,-21.86,4312.01,-1384.87,5009.65,20879.39,9273.38,4428.91,9352.82,9303.96,-842.39,146.58,24551.11,-1995.97,-5086.32,-3671.32,638.68,12041.15,788.75
1.058,-9847.82,-2204.02,767.29,3600.96,-27.05,4308.57,-1390.68,5007.73,20875.46,9266.94,4432.71,9356.98,9303.02,-840.65,154.36,24549.77,-1981.93,-5076.71,-3668.23,641.18,12045.98,800.59
1.060,-9846.7,-2207.19,758.66,3595.55,-41.89,4287.33,-1408.47,5006.43,20869.56,9258.41,4436.28,9354.7,9301.81,-833.05,151.14,24560.05,-2021.36,-5093.43,-3661.66,613.51,12032.93,806.27
1.062,-9842.37,-2206.43,744.76,3588.62,-67.46,4253.13,-1437.26,4999.06,20857.71,9251.66,4429.85,9342.22,9299.62,-835.55,132.14,24576.82,-2118.63,-5134.69,-3660.68,575.96,12017.68,801.35
1.064,-9842.86,-2209.56,736.0,3585.04,-79.39,4234.9,-1449.96,4995.84,20852.79,9249.55,4418.94,9329.31,9297.16,-842.97,114.58,24583.97,-2169.64,-5159.81,-3662.07,565.86,12047.41,804.8
1.066,-9846.35,-2210.27,728.85,3583.3,-85.16,4228.01,-1452.68,4990.03,20849.98,9250.72,4409.37,9320.95,9295.2,-853.43,103.62,24583.03,-2195.03,-5174.07,-3666.09,564.34,12052.91,792.32
1.068,-9843.8,-2201.51,736.27,3591.43,-75.24,4239.72,-1437.75,4990.65,20853.24,9259.84,4407.41,9322.73,9299.85,-855.27,105.95,24581.2,-2178.04,-5165.85,-3668.9,570.51,12034.05,770.38
1.070,-9841.16,-2192.62,755.8,3603.82,-47.65,4270.26,-1406.86,4998.48,20863.03,9270.92,4412.5,9331.76,9305.88,-852.58,118.87,24569.66,-2099.28,-5134.02,-3671.32,588.25,12035.48,767.92
1.072,-9841.07,-2187.74,772.48,3612.89,-24.68,4302.04,-1381.83,5003.93,20870.54,9278.16,4418.94,9342.94,9309.64,-852.99,133.98,24555.67,-2026.63,-5101.12,-3676.37,603.77,12021.57,764.16
1.074,-9851.35,-2199.59,766.84,3604.49,-28.83,4306.56,-1382.32,4998.3,20867.77,9270.74,4421.89,9348.66,9305.39,-854.95,141.17,24543.74,-1994.98,-5090.92,-3682.85,606.81,12008.74,760.45
1.076,-9862.71,-2212.82,745.56,3585.22,-60.04,4273.56,-1414.02,4980.59,20849.84,9252.1,4411.47,9335.61,9292.92,-864.16,125.21,24542.8,-2061.72,-5119.62,-3691.7,595.58,12009.41,747.89
1.078,-9860.52,-2215.24,735.91,3580.12,-75.59,4250.63,-1434.0,4978.99,20847.43,9245.04,4410.54,9328.28,9289.07,-858.22,116.81,24553.88,-2115.15,-5141.3,-3688.08,583.02,12012.59,746.06
1.080,-9854.48,-2212.69,729.02,3581.2,-86.95,4233.69,-1447.99,4981.44,20850.82,9246.29,4413.04,9325.55,9291.13,-847.58,113.32,24572.26,-2159.67,-5158.38,-3678.25,561.03,12013.57,750.08
1.082,-9855.33,-2212.24,725.14,3582.76,-89.45,4232.12,-1449.15,4983.46,20855.7,9250.67,4411.07,9323.85,9292.65,-845.57,110.15,24576.01,-2161.1,-5164.24,-3677.22,546.81,12001.05,748.56
1.084,-9854.97,-2206.92,721.78,3582.9,-96.69,4229.22,-1451.92,4973.4,20849.39,9252.24,4397.39,9315.72,9290.77,-862.51,94.77,24573.02,-2199.14,-5184.76,-3685.67,553.92,12029.89,758.04
1.086,-9844.33,-2193.29,747.62,3601.36,-60.53,4266.46,-1413.84,4989.89,20866.87,9270.07,4403.74,9325.42,9299.8,-862.15,108.18,24564.84,-2132.36,-5149.22,-3682.41,593.89,12070.43,787.18
1.088,-9837.54,-2183.5,769.93,3614.32,-32.37,4301.91,-1382.9,5002.5,20881.49,9282.59,4418.9,9344.77,9310.08,-853.08,130.67,24560.14,-2060.7,-5113.72,-3674.76,618.79,12056.75,792.5
1.090,-9834.14,-2179.74,783.38,3622.68,-12.16,4328.95,-1362.29,5016.54,20896.02,9294.66,4438.34,9368.64,9323.18,-838.37,159.06,24562.6,-1989.35,-5071.03,-3662.38,646.99,12057.92,808.28
1.092,-9838.92,-2193.91,777.13,3613.52,-18.37,4321.08,-1373.38,5019.13,20893.29,9284.83,4446.48,9370.83,9318.31,-831.08,163.57,24558.35,-1979.07,-5070.0,-3664.21,641.67,12057.69,811.01
1.094,-9848.36,-2207.46,751.87,3592.86,-55.88,4278.26,-1414.15,5000.49,20870.18,9263.9,4431.86,9351.3,9303.78,-842.97,137.15,24561.75,-2085.82,-5119.85,-3675.61,601.71,12045.89,794.07
1.096,-9853.05,-2213.23,735.33,3583.83,-78.68,4246.38,-1438.96,4991.9,20859.9,9255.5,4418.63,9334.09,9297.3,-850.75,116.45,24571.45,-2166.11,-5155.74,-3677.13,573.19,12046.2,787.94
1.098,-9849.21,-2209.29,732.38,3586.78,-82.3,4239.01,-1443.79,4995.48,20863.7,9260.01,4416.93,9332.03,9300.87,-847.76,112.52,24583.3,-2195.75,-5166.43,-3672.88,557.54,12045.98,783.52
1.100,-9841.79,-2199.37,741.01,3596.26,-70.99,4248.71,-1432.48,5004.38,20872.51,9270.3,4421.09,9337.58,9307.45,-842.21,116.99,24588.93,-2185.6,-5160.21,-3670.16,559.6,12042.18,774.53
1.102,-9833.65,-2186.76,762.64,3612.4,-39.38,4280.54,-1401.1,5019.58,20887.03,9284.6,4431.37,9349.69,9315.09,-832.2,132.64,24584.24,-2111.03,-5128.47,-3665.24,583.34,12045.76,774.31
1.104,-9828.11,-2177.82,777.3,3619.37,-23.47,4300.97,-1383.44,5022.08,20889.45,9289.43,4435.61,9356.13,9317.37,-834.44,140.59,24575.25,-2073.44,-5113.45,-3669.13,599.29,12033.11,767.34
1.106,-9827.26,-2172.68,796.44,3630.77,4.87,4336.24,-1352.64,5034.24,20902.81,9300.52,4447.37,9373.25,9327.11,-829.07,164.24,24567.25,-1982.78,-5067.45,-3665.69,626.65,12028.59,776.41
1.108,-9837.05,-2183.18,785.89,3620.85,-9.48,4327.3,-1364.13,5025.61,20894.37,9290.46,4446.97,9374.72,9322.64,-833.99,164.87,24563.09,-1992.12,-5071.7,-3667.56,618.52,12021.17,774.85
1.110,-9840.49,-2188.86,772.74,3611.55,-29.37,4301.32,-1386.34,5017.3,20884.49,9279.01,4442.95,9365.43,9317.24,-835.82,154.18,24569.98,-2045.86,-5092.26,-3666.45,602.74,12026.76,775.96
1.112,-9844.11,-2196.15,753.48,3599.48,-59.01,4265.34,-1418.35,5005.09,20868.66,9263.14,4432.22,9348.04,9307.18,-839.67,133.17,24578.2,-2125.92,-5132.81,-3667.79,578.19,12034.98,772.61
1.114,-9841.43,-2196.46,741.59,3593.53,-75.24,4242.27,-1440.97,4999.86,20860.66,9257.38,4424.13,9336.06,9301.59,-842.75,117.3,24587.77,-2188.28,-5161.55,-3668.64,558.7,12047.95,771.98
1.116,-9832.09,-2185.82,751.29,3604.89,-60.13,4254.7,-1426.58,5012.07,20873.67,9270.03,4430.92,9342.98,9310.22,-832.02,126.51,24595.95,-2159.4,-5144.57,-3658.94,569.66,12058.1,782.98
1.118,-9831.46,-2179.79,758.93,3610.92,-49.0,4267.22,-1412.09,5012.51,20877.38,9275.26,4429.45,9344.01,9311.69,-832.47,129.33,24590.36,-2130.03,-5136.7,-3659.16,581.5,12052.46,782.76
1.120,-9829.81,-2174.11,771.85,3617.81,-32.59,4286.98,-1394.17,5013.68,20880.51,9281.43,4430.25,9347.86,9314.2,-834.97,136.75,24582.09,-2091.27,-5119.89,-3659.29,598.85,12047.5,784.9
1.122,-9829.94,-2172.01,788.52,3625.5,-5.54,4319.97,-1365.6,5022.71,20890.88,9289.88,4438.39,9360.69,9318.84,-831.66,155.97,24569.31,-2001.24,-5077.91,-3658.62,627.95,12042.81,793.13
1.124,-9838.34,-2182.65,781.55,3616.33,-13.32,4320.77,-1369.04,5016.36,20887.12,9282.72,4441.74,9366.9,9316.16,-832.65,162.45,24560.72,-1975.72,-5071.16,-3661.75,631.03,12030.87,790.49
1.126,-9849.39,-2195.7,761.52,3600.64,-39.29,4292.56,-1394.48,5002.45,20871.34,9268.55,4432.8,9355.14,9307.85,-840.38,149.67,24560.68,-2023.1,-5089.31,-3667.65,613.6,12032.3,787.72
1.128,-9859.0,-2207.82,740.11,3585.62,-67.37,4259.17,-1421.12,4989.36,20855.56,9252.42,4421.4,9337.98,9296.27,-847.18,129.68,24560.5,-2085.33,-5126.33,-3673.73,585.53,12034.67,778.56
1.130,-9865.3,-2216.26,716.51,3570.83,-99.87,4220.77,-1455.05,4974.74,20839.34,9241.6,4407.05,9318.13,9286.84,-856.47,103.94,24568.55,-2182.47,-5171.03,-3681.82,558.08,12038.2,766.35
1.132,-9865.52,-2217.65,712.17,3570.02,-102.01,4216.12,-1457.07,4978.36,20843.18,9247.05,4405.26,9315.54,9288.98,-854.46,101.34,24574.45,-2190.34,-5174.7,-3680.93,555.35,12042.4,766.89
1.134,-9860.65,-2209.65,722.05,3578.96,-88.07,4230.47,-1441.96,4985.51,20851.14,9257.38,4408.03,9320.86,9295.11,-851.74,106.71,24576.68,-2168.66,-5164.42,-3677.93,562.24,12041.87,767.83
1.136,-9852.6,-2195.88,743.78,3595.46,-59.41,4262.08,-1411.69,4997.63,20864.55,9273.02,4416.62,9333.33,9305.08,-846.64,120.83,24574.18,-2113.22,-5137.73,-3674.05,581.95,12039.23,773.1
1.138,-9842.23,-2183.05,770.6,3612.31,-25.44,4301.37,-1377.23,5013.14,20881.8,9288.09,4430.43,9351.08,9316.34,-838.5,142.65,24567.88,-2032.98,-5099.51,-3668.95,611.1,12036.77,781.01
1.140,-9841.88,-2182.83,781.46,3616.91,-9.43,4326.27,-1360.82,5020.51,20892.04,9294.93,4443.35,9369.67,9326.09,-832.65,163.44,24565.6,-1976.97,-5068.53,-3664.43,632.38,12032.93,789.28
1.142,-9850.37,-2195.57,771.85,3606.95,-20.88,4314.91,-1374.01,5016.04,20887.21,9285.32,4443.12,9368.02,9321.12,-834.57,162.9,24564.61,-1987.92,-5070.54,-3665.28,623.12,12030.83,789.73
1.144,-9852.74,-2202.99,758.66,3597.74,-43.0,4288.23,-1397.07,5007.95,20877.6,9272.4,4438.21,9357.51,9312.99,-837.34,148.59,24570.2,-2051.62,-5103.31,-3666.76,591.25,12026.49,781.01
1.146,-9853.1,-2205.31,740.42,3587.32,-73.72,4250.23,-1431.76,4995.3,20862.94,9260.51,4425.15,9341.15,9305.3,-844.4,124.9,24583.48,-2162.49,-5149.22,-3670.96,559.73,12031.18,770.87
1.148,-9851.17,-2204.42,737.47,3588.13,-74.48,4243.84,-1435.97,4999.24,20866.16,9262.92,4421.89,9336.9,9304.54,-842.12,121.46,24588.75,-2172.9,-5153.82,-3671.54,555.53,12042.18,773.73
1.150,-9847.33,-2199.46,739.4,3592.01,-71.35,4247.81,-1431.94,5000.44,20868.62,9266.72,4420.42,9337.17,9304.63,-842.26,120.88,24589.74,-2170.0,-5153.95,-3670.78,560.85,12046.38,775.02
1.152,-9843.62,-2190.34,753.75,3603.24,-52.17,4271.11,-1409.1,5006.61,20876.35,9275.26,4423.05,9343.83,9308.43,-840.69,130.18,24584.86,-2125.61,-5134.6,-3668.46,578.42,12047.59,779.27
1.154,-9841.74,-2184.48,771.18,3613.34,-27.89,4299.58,-1382.9,5012.51,20884.35,9283.93,4428.73,9353.4,9313.03,-839.22,144.44,24575.34,-2061.68,-5103.66,-3667.97,605.11,12039.19,782.45
1.156,-9839.06,-2181.8,789.06,3624.38,-0.98,4336.1,-1352.37,5026.64,20901.3,9295.29,4445.14,9375.62,9322.87,-827.19,171.17,24567.43,-1963.69,-5058.11,-3660.77,635.73,12033.42,795.01
1.158,-9841.16,-2185.42,784.55,3620.27,-8.36,4333.02,-1358.27,5027.18,20901.38,9291.49,4454.93,9385.23,9325.91,-820.71,180.56,24569.71,-1959.31,-5050.73,-3654.55,644.45,12043.48,806.9
1.160,-9848.31,-2195.43,763.54,3603.19,-38.98,4297.35,-1390.9,5013.36,20883.32,9274.81,4447.73,9371.42,9315.76,-825.41,165.0,24572.93,-2030.03,-5082.43,-3658.8,625.09,12047.01,800.01
1.162,-9856.76,-2203.66,739.89,3588.26,-70.1,4256.98,-1423.9,4999.1,20864.68,9259.03,4433.2,9349.87,9304.94,-833.36,140.64,24577.89,-2112.96,-5124.09,-3665.73,588.48,12044.1,788.12
1.164,-9859.04,-2205.98,724.73,3579.9,-90.17,4230.07,-1445.08,4993.11,20855.12,9253.13,4424.53,9336.68,9300.07,-836.18,124.54,24585.18,-2167.31,-5149.57,-3667.56,565.77,12041.29,781.1
1.166,-9862.57,-2210.63,717.31,3574.31,-94.82,4222.87,-1450.27,4990.07,20851.27,9251.66,4418.63,9329.39,9295.96,-838.5,118.87,24582.49,-2160.83,-5153.73,-3670.47,565.23,12036.59,771.36
1.168,-9861.05,-2205.58,724.38,3578.11,-84.49,4233.11,-1438.33,4989.76,20851.09,9255.37,4413.98,9327.74,9296.0,-844.85,117.3,24575.61,-2140.0,-5147.74,-3673.29,581.73,12057.47,777.71
1.170,-9853.41,-2195.21,744.45,3590.32,-57.49,4262.39,-1409.99,4998.88,20860.97,9266.59,4419.83,9337.58,9303.11,-843.38,129.15,24568.32,-2082.33,-5121.32,-3670.69,607.07,12062.74,788.93
1.172,-9850.46,-2188.64,762.6,3600.96,-33.04,4295.42,-1381.74,5006.48,20870.9,9277.14,4428.37,9352.55,9311.16,-840.47,147.97,24559.25,-2008.48,-5085.96,-3669.8,625.13,12043.7,790.18
1.174,-9853.1,-2191.28,765.86,3602.7,-28.43,4308.48,-1374.23,5008.4,20876.93,9280.53,4437.22,9365.92,9318.31,-836.13,164.55,24559.69,-1970.17,-5062.94,-3663.72,640.6,12044.95,798.14
1.176,-9860.43,-2204.19,749.5,3588.62,-51.95,4282.91,-1399.71,4995.44,20863.74,9264.93,4430.52,9354.7,9308.52,-842.93,151.81,24559.29,-2019.57,-5087.53,-3669.08,621.29,12038.02,789.78
1.178,-9866.82,-2215.37,730.37,3574.67,-78.68,4249.92,-1428.9,4982.78,20849.62,9249.55,4418.63,9336.73,9296.94,-850.66,130.04,24562.69,-2095.12,-5126.01,-3674.94,592.86,12041.6,784.28
1.180,-9869.68,-2219.44,712.84,3565.91,-104.92,4218.09,-1455.77,4973.49,20839.65,9241.42,4406.78,9322.47,9291.35,-856.38,110.24,24575.34,-2183.05,-5163.88,-3676.91,569.3,12054.56,781.69
1.182,-9869.5,-2218.86,711.63,3569.22,-102.24,4219.47,-1453.94,4979.12,20847.11,9247.14,4406.38,9321.93,9293.54,-852.05,110.69,24579.9,-2175.36,-5162.22,-3674.81,566.53,12057.02,782.62
1.184,-9870.35,-2213.67,712.04,3571.99,-101.7,4223.59,-1450.36,4977.51,20847.11,9252.33,4401.59,9321.39,9295.02,-855.45,108.85,24581.24,-2180.55,-5163.3,-3675.88,571.71,12055.15,778.78
1.186,-9865.34,-2202.85,733.54,3586.52,-70.59,4257.34,-1417.15,4990.61,20861.42,9265.51,4409.73,9333.11,9301.72,-850.53,125.26,24573.69,-2102.72,-5129.9,-3673.38,594.15,12054.25,785.17
1.188,-9852.6,-2189.67,756.96,3601.49,-43.0,4290.64,-1389.74,5000.67,20872.73,9277.9,4420.64,9349.47,9311.56,-846.06,143.54,24569.75,-2047.38,-5099.68,-3669.35,618.7,12050.23,788.17
1.190,-9850.68,-2191.41,771.54,3608.11,-21.1,4320.68,-1367.52,5012.74,20886.95,9285.63,4436.73,9370.03,9319.83,-835.24,169.29,24564.97,-1964.45,-5057.62,-3661.26,647.8,12051.57,801.35
1.192,-9850.19,-2196.28,766.93,3603.1,-29.46,4313.13,-1377.67,5013.32,20886.86,9279.1,4445.14,9375.75,9320.32,-827.77,175.46,24570.6,-1975.58,-5057.53,-3656.34,645.92,12043.16,805.74
1.194,-9852.2,-2203.03,750.93,3590.36,-54.9,4280.58,-1408.7,5004.24,20875.55,9265.51,4440.17,9364.53,9312.09,-828.85,159.5,24578.25,-2052.87,-5092.62,-3659.56,614.36,12037.8,798.0
1.196,-9858.55,-2211.21,732.96,3578.92,-78.95,4248.22,-1437.26,4995.57,20864.5,9254.11,4431.05,9348.71,9302.3,-832.47,139.97,24584.5,-2122.97,-5127.89,-3662.96,581.91,12048.62,793.08
1.198,-9857.07,-2212.55,724.11,3575.16,-91.91,4231.19,-1452.95,4993.83,20860.03,9253.71,4424.04,9340.44,9300.61,-835.15,127.58,24592.1,-2173.39,-5148.37,-3663.41,574.04,12067.84,792.32
1.200,-9850.28,-2206.97,732.69,3583.97,-78.77,4243.43,-1439.23,5003.44,20868.66,9263.14,4429.13,9345.71,9305.43,-829.21,132.86,24592.95,-2148.72,-5138.53,-3659.92,591.07,12078.39,798.23
1.202,-9845.09,-2200.17,748.38,3594.43,-57.27,4265.07,-1418.62,5012.16,20875.41,9272.04,4435.61,9353.67,9309.41,-823.71,141.75,24587.05,-2108.04,-5121.05,-3660.59,604.48,12069.09,798.23
1.204,-9839.51,-2191.63,772.12,3609.63,-24.9,4301.86,-1386.17,5025.52,20888.24,9285.45,4447.46,9366.9,9316.56,-817.36,159.06,24577.8,-2033.43,-5087.08,-3659.34,620.44,12057.87,801.09
1.206,-9835.35,-2183.85,792.41,3624.25,2.91,4340.44,-1353.67,5040.9,20904.6,9299.26,4463.91,9387.78,9327.29,-807.21,184.18,24572.93,-1949.56,-5043.76,-3652.19,650.03,12056.26,811.73
1.208,-9839.51,-2185.87,788.26,3622.14,-2.95,4339.86,-1355.01,5037.01,20901.25,9291.58,4467.76,9390.5,9324.21,-807.08,188.92,24565.37,-1935.48,-5039.25,-3653.66,654.1,12051.35,811.5
1.210,-9839.51,-2186.54,768.81,3610.97,-36.34,4302.89,-1388.45,5018.23,20881.13,9273.02,4456.0,9374.59,9311.29,-816.42,167.5,24568.41,-2026.19,-5081.49,-3663.09,630.95,12051.48,796.35
1.212,-9837.05,-2182.96,752.45,3605.74,-62.09,4269.0,-1415.45,5007.33,20868.35,9262.92,4443.26,9357.56,9303.51,-822.05,147.07,24577.35,-2107.37,-5117.48,-3666.98,605.91,12061.18,788.93
1.214,-9835.44,-2181.17,742.48,3604.8,-75.86,4249.65,-1429.48,5004.91,20866.25,9262.52,4436.64,9348.89,9303.02,-823.3,135.05,24587.41,-2158.24,-5139.6,-3666.8,585.75,12059.26,782.62
1.216,-9832.49,-2176.88,744.45,3609.85,-70.72,4253.98,-1422.96,5011.35,20873.8,9270.34,4436.91,9349.73,9307.58,-821.52,135.63,24591.88,-2151.36,-5138.22,-3663.09,583.11,12059.44,783.79
1.218,-9827.39,-2169.64,759.02,3620.27,-51.45,4275.62,-1401.32,5019.62,20884.04,9283.04,4440.76,9358.05,9315.89,-818.03,144.66,24592.73,-2114.61,-5120.87,-3658.13,599.56,12066.46,788.57
1.220,-9820.19,-2159.13,780.57,3634.57,-23.65,4306.82,-1371.86,5029.41,20896.33,9297.48,4448.67,9371.55,9326.53,-813.38,161.65,24590.18,-2054.04,-5090.65,-3652.86,625.27,12062.52,794.52
1.222,-9816.35,-2153.86,800.77,3645.61,5.14,4342.23,-1341.91,5039.38,20909.16,9308.88,4459.53,9387.2,9335.16,-810.79,181.72,24580.03,-1973.97,-5053.24,-3649.68,644.98,12041.11,798.99
1.224,-9824.84,-2161.77,801.27,3642.93,10.55,4354.03,-1334.04,5040.9,20914.08,9309.9,4467.17,9399.04,9340.7,-808.86,194.82,24576.41,-1930.61,-5031.65,-3643.42,663.8,12057.6,818.25
1.226,-9828.91,-2169.82,784.81,3629.74,-16.72,4325.55,-1360.37,5027.26,20899.69,9297.03,4457.83,9387.69,9335.34,-819.86,179.17,24581.29,-2004.15,-5063.65,-3647.0,636.4,12068.56,819.73
1.228,-9827.08,-2176.48,771.09,3620.89,-38.76,4296.59,-1385.85,5020.02,20889.85,9287.33,4447.68,9372.13,9329.08,-828.53,158.52,24589.11,-2085.37,-5099.77,-3650.49,589.24,12047.41,805.38
1.230,-9827.08,-2183.5,760.09,3614.19,-53.51,4274.86,-1404.54,5019.04,20888.64,9283.48,4444.73,9363.55,9326.89,-825.27,146.58,24601.81,-2143.35,-5125.79,-3646.2,573.77,12053.8,803.99
1.232,-9831.06,-2190.34,748.96,3606.19,-65.31,4260.51,-1418.49,5015.42,20884.67,9281.25,4438.88,9357.24,9324.16,-826.97,138.22,24606.72,-2170.71,-5139.6,-3645.52,572.88,12060.87,798.14
1.234,-9827.21,-2184.7,751.82,3609.0,-60.57,4264.18,-1414.91,5014.75,20881.94,9284.15,4432.08,9351.93,9321.97,-834.03,132.37,24602.07,-2167.27,-5140.41,-3649.1,578.19,12059.57,790.22
1.236,-9818.72,-2174.24,773.55,3622.9,-31.25,4293.81,-1384.47,5025.34,20891.86,9294.79,4436.42,9358.72,9326.8,-831.53,143.77,24592.6,-2095.74,-5110.95,-3646.28,599.47,12058.9,793.84
1.238,-9820.28,-2175.9,790.85,3628.98,-3.67,4325.87,-1356.88,5032.76,20897.63,9298.73,4442.14,9366.86,9327.56,-830.41,158.65,24574.45,-2008.62,-5076.57,-3648.79,621.6,12046.34,790.54
1.240,-9827.97,-2186.72,794.78,3626.66,5.72,4344.55,-1345.35,5034.82,20900.85,9297.25,4452.24,9379.6,9328.37,-826.48,176.04,24562.82,-1943.22,-5049.57,-3649.32,642.08,12042.85,793.44
1.242,-9839.55,-2203.35,773.59,3609.0,-24.63,4314.91,-1374.99,5017.61,20882.97,9280.49,4445.72,9372.49,9318.4,-834.66,166.25,24562.29,-1997.4,-5070.58,-3653.26,632.06,12043.43,788.84
1.244,-9847.11,-2214.12,750.17,3592.6,-59.9,4274.01,-1410.4,5001.34,20863.43,9263.32,4433.29,9355.41,9307.45,-843.15,145.02,24568.72,-2089.31,-5112.47,-3656.75,607.03,12043.03,783.38
1.246,-9843.53,-2212.51,738.77,3590.27,-77.34,4246.97,-1430.24,4999.33,20857.8,9260.91,4428.6,9345.22,9308.34,-839.62,133.93,24587.05,-2153.77,-5134.46,-3648.65,597.02,12064.94,793.04
1.248,-9843.13,-2214.79,735.64,3591.39,-76.53,4244.1,-1428.81,5006.92,20864.19,9264.93,4430.65,9344.55,9310.35,-831.08,135.94,24593.45,-2142.01,-5133.03,-3640.25,589.1,12071.1,801.31
1.250,-9847.69,-2217.96,731.17,3589.91,-80.33,4243.7,-1428.77,5003.57,20864.01,9266.54,4427.75,9343.92,9309.77,-831.75,134.6,24594.61,-2139.42,-5135.63,-3638.95,581.86,12067.35,799.66
1.252,-9845.9,-2212.73,742.03,3598.32,-64.33,4262.84,-1411.42,5008.4,20870.76,9275.97,4431.95,9351.25,9315.18,-828.67,144.12,24593.36,-2104.06,-5116.67,-3636.45,601.44,12068.78,799.25
1.254,-9836.65,-2202.85,767.92,3615.13,-28.03,4302.53,-1374.77,5025.79,20887.97,9289.92,4446.03,9368.55,9325.15,-819.24,166.92,24586.87,-2015.5,-5074.16,-3631.53,635.37,12063.95,802.56
1.256,-9833.07,-2201.51,780.7,3620.0,-13.46,4327.25,-1357.78,5029.63,20894.32,9294.88,4455.15,9384.02,9330.47,-818.61,181.9,24579.45,-1970.57,-5051.76,-3631.58,644.89,12044.46,799.79
1.258,-9835.53,-2208.22,777.89,3615.75,-17.3,4325.64,-1362.74,5029.95,20894.37,9292.38,4461.32,9391.04,9332.84,-813.96,191.87,24582.49,-1962.44,-5038.66,-3625.94,648.16,12051.43,809.62
1.260,-9840.71,-2217.83,764.25,3604.58,-37.19,4302.08,-1385.23,5024.05,20886.01,9279.46,4459.08,9383.62,9326.18,-810.79,186.01,24588.44,-2000.62,-5056.46,-3623.62,636.94,12052.64,810.52
1.262,-9841.52,-2221.85,747.71,3595.86,-63.21,4270.66,-1412.41,5016.09,20876.31,9269.89,4452.47,9370.61,9320.81,-811.32,168.44,24600.46,-2078.8,-5092.84,-3625.1,603.27,12034.76,804.31
1.264,-9839.77,-2222.52,739.98,3593.62,-73.45,4254.3,-1425.42,5015.91,20877.33,9270.3,4449.7,9364.22,9319.96,-808.55,156.33,24610.61,-2120.82,-5116.05,-3624.2,579.27,12020.63,799.92
1.266,-9835.53,-2216.76,740.56,3596.75,-73.94,4253.0,-1425.42,5016.98,20880.51,9276.42,4444.42,9360.69,9321.66,-813.16,148.59,24614.68,-2140.89,-5124.32,-3625.72,599.34,12066.95,805.24
1.268,-9828.78,-2207.91,754.55,3606.86,-56.37,4272.04,-1404.94,5019.04,20885.16,9282.86,4437.85,9356.89,9320.1,-826.93,140.68,24600.78,-2124.71,-5124.99,-3636.9,594.47,12080.63,792.01
1.270,-9822.61,-2198.83,774.98,3619.46,-29.41,4301.1,-1378.07,5026.06,20893.02,9291.53,4441.07,9363.95,9323.49,-828.76,149.18,24588.44,-2075.09,-5101.83,-3641.41,615.25,12074.05,785.75
1.272,-9817.96,-2191.41,795.32,3630.64,-2.01,4336.42,-1349.02,5035.71,20906.08,9303.87,4454.52,9382.1,9333.02,-821.25,173.0,24582.81,-1993.02,-5061.69,-3635.38,651.02,12071.86,798.14
1.274,-9825.47,-2199.72,792.5,3625.27,-3.53,4341.65,-1347.14,5033.3,20905.23,9300.07,4457.88,9388.76,9332.7,-821.52,183.06,24576.37,-1956.94,-5045.24,-3634.48,658.39,12066.41,803.95
1.276,-9829.22,-2208.75,778.65,3613.52,-26.11,4315.81,-1370.16,5025.03,20892.67,9285.76,4455.73,9382.1,9325.51,-823.26,172.96,24579.1,-2008.66,-5070.0,-3636.9,640.33,12063.15,797.2
1.278,-9835.97,-2218.5,758.39,3598.99,-53.11,4278.3,-1401.45,5013.54,20876.4,9270.07,4443.04,9363.19,9313.66,-829.56,151.86,24584.1,-2085.24,-5103.98,-3642.13,612.93,12065.34,790.54
1.280,-9839.73,-2227.31,742.44,3588.48,-73.27,4248.89,-1425.42,5006.12,20865.89,9259.88,4433.24,9346.61,9305.08,-831.89,133.31,24589.42,-2143.58,-5135.49,-3643.51,587.18,12069.99,783.34
1.282,-9837.0,-2227.53,738.19,3588.17,-76.8,4242.45,-1430.6,5008.18,20866.2,9262.61,4431.5,9343.3,9306.33,-829.34,129.37,24596.71,-2158.55,-5143.0,-3638.46,584.95,12074.64,781.01
1.284,-9827.26,-2215.55,751.33,3601.58,-59.28,4259.75,-1412.45,5018.23,20875.72,9275.44,4437.22,9351.03,9315.0,-822.41,139.21,24601.63,-2126.77,-5127.31,-3628.72,601.22,12080.36,790.22
1.286,-9820.95,-2205.4,769.7,3614.46,-35.14,4287.24,-1384.87,5027.35,20884.58,9287.64,4443.93,9361.31,9321.17,-817.67,153.42,24597.6,-2067.89,-5099.77,-3622.19,625.22,12082.01,801.22
1.288,-9819.39,-2200.84,786.83,3623.84,-10.82,4316.61,-1359.43,5033.48,20890.12,9294.35,4450.14,9371.46,9325.1,-817.22,168.22,24585.04,-1997.22,-5068.35,-3621.74,649.01,12071.95,800.91
1.290,-9824.35,-2204.37,788.84,3623.35,-5.72,4330.56,-1351.7,5033.26,20891.06,9293.41,4455.37,9381.3,9326.85,-819.19,180.6,24577.17,-1955.42,-5048.54,-3622.82,656.83,12059.93,796.97
1.292,-9831.28,-2213.94,778.78,3615.71,-18.69,4318.0,-1364.53,5028.83,20884.22,9283.04,4454.3,9378.39,9321.26,-821.92,177.12,24574.13,-1971.16,-5054.89,-3626.35,638.77,12050.76,792.86
1.294,-9844.2,-2229.99,753.3,3596.98,-54.14,4277.81,-1401.54,5009.61,20863.16,9260.51,4438.56,9357.02,9305.52,-833.54,152.26,24573.55,-2056.23,-5099.51,-3635.56,601.98,12038.43,780.48
1.296,-9843.53,-2232.63,737.52,3589.87,-78.72,4247.41,-1428.46,5001.56,20854.62,9253.09,4429.76,9343.48,9301.54,-837.56,132.9,24588.3,-2143.76,-5136.25,-3633.05,579.89,12054.3,783.03
1.298,-9834.68,-2222.48,741.36,3600.11,-75.06,4250.32,-1423.85,5013.63,20869.06,9265.56,4436.91,9350.36,9313.26,-825.67,138.54,24606.32,-2152.96,-5133.17,-3617.85,584.68,12080.09,800.77
1.300,-9831.55,-2213.76,745.83,3607.39,-68.35,4258.86,-1414.69,5019.13,20878.36,9274.81,4439.5,9355.46,9320.01,-820.22,143.45,24611.68,-2141.92,-5127.62,-3612.13,590.62,12083.31,805.24
1.302,-9825.11,-2201.92,764.38,3622.23,-42.11,4288.32,-1386.75,5028.52,20891.64,9288.18,4444.55,9364.76,9327.52,-819.15,154.14,24606.77,-2084.75,-5102.55,-3610.57,603.01,12067.89,799.79
